# FILE      =  Hot.hot
# NOTEA     = Small 8inch bucket horn RTLSDR
# NOTEB     = Spectral Integration
# OBSERVER  = Science Aficionado
# DEVICE    = rtl=0,bias=1
# DATADIR   = ../data/
# SITE      = Small 8inch bucket horn RTLSDR
# CITY      = Green Bank
# REGION    = West Virginia
# COUNTRY   = US
# TELTYPE   = Bubble Wrap  Horn
# FRAME     = TOPO
# GAIN1     = 49.6
# GAIN2     = 11.0
# GAIN3     = 11.0
# GAIN4     = 0.0
# Count     = 189092864
# REFFREQ   = 1420405751.768
# OBSFREQ   = 1420500000.0
# OBSBW     = 2400000.0
# Duration  = 43.690272
# DeltaX    = 5859.375
# TSYS      = 200.0
# TRX       = 100.0
# TRMS      = 2.0
# TINT      = 1.0
# KPERC     = 100.0
# GAINFACT  = 1.0
# BUNIT     = Counts
# NCHAN     = 1024
# NSPEC     = 1
# NTIME     = 0
# NSAMPLES  = 0
# EPEAK     = 4.10875183718
# ERMS      = 0.995973393526
# EMJD      = 58568.808999981004 
# REFCHAN   = 512.0
# REFSAMPL  = 256.0
# NAVE      = 184661
# NMEDIAN   = 1024
# Fft_rate  = 5000
# UTC       = 2022-02-17 18:57:58.919462
# SECONDS   =       0.0000000000 
# LST       = 01:33:44.673
# AZ        = 0.0
# EL        = -90.0
# TELLON    = -79:49:54.459
# TELLAT    = +38:25:19.196
# TELALT    = 819.676
# RA        = 23:24:03.560
# DEC       = +38:10:48.300
# GALLON    = 104:36:05.10
# GALLAT    = -21:33:41.80
# ALT_SUN   = +36:19:45.8
# AZ_SUN    = +204:57:46.2
# ETAA      = 0.8
# ETAB      = 0.99
# POLANGLE  = 0.0
# TELSIZEAM = 1.0
# TELSIZEBM = 1.0
# AST_VERS  = 5.0.1
# N  Frequency  Intensity 
#       (Hz)    (Counts) 
0000 1419300000 62548.7500
0001 1419302343 63009.1602
0002 1419304687 62548.7500
0003 1419307031 62244.1484
0004 1419309375 61754.0703
0005 1419311718 61173.7773
0006 1419314062 60926.4648
0007 1419316406 60837.0703
0008 1419318750 60470.9805
0009 1419321093 60228.5781
0010 1419323437 59952.4766
0011 1419325781 59573.0156
0012 1419328125 59557.1797
0013 1419330468 59181.7266
0014 1419332812 58781.3008
0015 1419335156 58712.1211
0016 1419337500 58797.0703
0017 1419339843 58705.6445
0018 1419342187 58482.5391
0019 1419344531 58491.5977
0020 1419346875 58360.7305
0021 1419349218 58410.6953
0022 1419351562 58250.6289
0023 1419353906 58265.0859
0024 1419356250 58911.7461
0025 1419358593 58719.8633
0026 1419360937 58960.3477
0027 1419363281 59375.8633
0028 1419365625 59389.9961
0029 1419367968 59580.7773
0030 1419370312 60095.1016
0031 1419372656 60210.8828
0032 1419375000 60802.2617
0033 1419377343 61090.1953
0034 1419379687 61703.0000
0035 1419382031 62142.4766
0036 1419384375 62661.0117
0037 1419386718 63350.7539
0038 1419389062 64046.2305
0039 1419391406 64296.4336
0040 1419393750 65317.3477
0041 1419396093 65979.3672
0042 1419398437 66874.1797
0043 1419400781 67328.6953
0044 1419403125 68262.7344
0045 1419405468 68806.4297
0046 1419407812 69618.5156
0047 1419410156 70800.4766
0048 1419412500 71662.4844
0049 1419414843 72465.9688
0050 1419417187 73616.4844
0051 1419419531 74472.8203
0052 1419421875 75069.6875
0053 1419424218 76484.8438
0054 1419426562 77283.1406
0055 1419428906 78463.4922
0056 1419431250 79607.7891
0057 1419433593 80659.3672
0058 1419435937 81552.9453
0059 1419438281 82773.4609
0060 1419440625 84084.8281
0061 1419442968 84749.6250
0062 1419445312 86005.1484
0063 1419447656 87469.6250
0064 1419450000 88218.5781
0065 1419452343 89212.3984
0066 1419454687 90806.1172
0067 1419457031 91877.6719
0068 1419459375 92886.4766
0069 1419461718 94314.5156
0070 1419464062 95923.4922
0071 1419466406 96550.0469
0072 1419468750 98355.6719
0073 1419471093 99415.7188
0074 1419473437 100913.7734
0075 1419475781 102412.2266
0076 1419478125 102821.5859
0077 1419480468 104317.2578
0078 1419482812 105714.5703
0079 1419485156 106472.4062
0080 1419487500 107698.4531
0081 1419489843 109319.6797
0082 1419492187 110264.2734
0083 1419494531 112050.0078
0084 1419496875 113822.0312
0085 1419499218 114786.4062
0086 1419501562 116170.0312
0087 1419503906 117053.8359
0088 1419506250 118675.0000
0089 1419508593 120341.1406
0090 1419510937 120854.7422
0091 1419513281 122049.7188
0092 1419515625 123908.2188
0093 1419517968 125592.3906
0094 1419520312 126285.8281
0095 1419522656 127182.1094
0096 1419525000 128874.5938
0097 1419527343 129830.7266
0098 1419529687 131200.9219
0099 1419532031 133071.3750
0100 1419534375 133520.3906
0101 1419536718 134781.0781
0102 1419539062 135898.5781
0103 1419541406 137939.4062
0104 1419543750 138330.0156
0105 1419546093 140619.8750
0106 1419548437 140934.5469
0107 1419550781 142485.6875
0108 1419553125 143965.5625
0109 1419555468 144586.0000
0110 1419557812 146237.3906
0111 1419560156 147256.1875
0112 1419562500 148977.5156
0113 1419564843 149572.6562
0114 1419567187 151376.9062
0115 1419569531 152416.7344
0116 1419571875 152882.7188
0117 1419574218 153906.9844
0118 1419576562 154785.5000
0119 1419578906 157508.4844
0120 1419581250 158014.1719
0121 1419583593 159623.0469
0122 1419585937 159887.2031
0123 1419588281 160678.8438
0124 1419590625 162031.0312
0125 1419592968 163633.5000
0126 1419595312 164411.2188
0127 1419597656 164739.2812
0128 1419600000 166562.0156
0129 1419602343 168146.1250
0130 1419604687 168362.4375
0131 1419607031 170050.9375
0132 1419609375 170340.9531
0133 1419611718 171259.1094
0134 1419614062 172082.8281
0135 1419616406 174231.8438
0136 1419618750 174533.5781
0137 1419621093 175077.0938
0138 1419623437 175428.4219
0139 1419625781 177308.1094
0140 1419628125 178163.1094
0141 1419630468 178606.1562
0142 1419632812 179462.6250
0143 1419635156 180918.8750
0144 1419637500 181839.8594
0145 1419639843 181885.2656
0146 1419642187 183267.0781
0147 1419644531 184090.5312
0148 1419646875 185436.3594
0149 1419649218 186527.0000
0150 1419651562 186410.3438
0151 1419653906 187700.0469
0152 1419656250 188139.5156
0153 1419658593 189007.2500
0154 1419660937 189294.2500
0155 1419663281 190569.6719
0156 1419665625 191341.4062
0157 1419667968 192431.5625
0158 1419670312 192381.7500
0159 1419672656 193783.0156
0160 1419675000 194701.1719
0161 1419677343 194974.4062
0162 1419679687 195136.5938
0163 1419682031 196473.9219
0164 1419684375 196285.1719
0165 1419686718 197086.3281
0166 1419689062 197935.7812
0167 1419691406 198455.1094
0168 1419693750 199257.5938
0169 1419696093 198764.5312
0170 1419698437 200380.1094
0171 1419700781 201096.6562
0172 1419703125 201017.1250
0173 1419705468 202520.1250
0174 1419707812 202921.7656
0175 1419710156 202161.5000
0176 1419712500 202908.5156
0177 1419714843 203502.2188
0178 1419717187 204160.8750
0179 1419719531 204277.6875
0180 1419721875 204979.9375
0181 1419724218 204692.8125
0182 1419726562 205210.8906
0183 1419728906 206244.9219
0184 1419731250 207091.8125
0185 1419733593 206358.6094
0186 1419735937 207130.9375
0187 1419738281 206241.5312
0188 1419740625 207029.0469
0189 1419742968 208044.8594
0190 1419745312 207631.8125
0191 1419747656 208096.7031
0192 1419750000 208405.8281
0193 1419752343 208587.3594
0194 1419754687 208714.7812
0195 1419757031 209471.9531
0196 1419759375 209637.6406
0197 1419761718 208240.5000
0198 1419764062 208637.0156
0199 1419766406 209888.1562
0200 1419768750 209736.1719
0201 1419771093 210142.5156
0202 1419773437 209944.6094
0203 1419775781 210113.4844
0204 1419778125 210498.0938
0205 1419780468 210822.6875
0206 1419782812 210947.7188
0207 1419785156 210493.0781
0208 1419787500 210105.4531
0209 1419789843 210286.0156
0210 1419792187 210846.1250
0211 1419794531 210563.0938
0212 1419796875 211379.6562
0213 1419799218 211338.3281
0214 1419801562 210004.0938
0215 1419803906 210728.3594
0216 1419806250 211238.2969
0217 1419808593 210083.3125
0218 1419810937 210329.0781
0219 1419813281 210512.0156
0220 1419815625 210573.0625
0221 1419817968 210178.1250
0222 1419820312 210813.5938
0223 1419822656 210915.0156
0224 1419825000 209960.8906
0225 1419827343 210247.7031
0226 1419829687 210082.0156
0227 1419832031 209430.8750
0228 1419834375 209183.1406
0229 1419836718 209788.0625
0230 1419839062 209252.2969
0231 1419841406 210156.3906
0232 1419843750 209848.8125
0233 1419846093 209023.3594
0234 1419848437 208953.5000
0235 1419850781 208604.5156
0236 1419853125 208492.3125
0237 1419855468 208962.1719
0238 1419857812 208906.8594
0239 1419860156 208903.6406
0240 1419862500 208209.2969
0241 1419864843 208402.0156
0242 1419867187 207645.3750
0243 1419869531 207442.7188
0244 1419871875 207474.5000
0245 1419874218 208018.6875
0246 1419876562 207940.1250
0247 1419878906 207752.3594
0248 1419881250 207227.0938
0249 1419883593 206339.6250
0250 1419885937 205833.0156
0251 1419888281 206476.8125
0252 1419890625 206164.2188
0253 1419892968 205470.8750
0254 1419895312 205636.5156
0255 1419897656 205249.6719
0256 1419900000 205641.0000
0257 1419902343 204605.4531
0258 1419904687 204665.0312
0259 1419907031 204389.2812
0260 1419909375 204957.3438
0261 1419911718 203924.9844
0262 1419914062 203486.1406
0263 1419916406 203382.2344
0264 1419918750 203373.8594
0265 1419921093 203020.0000
0266 1419923437 202592.1250
0267 1419925781 202833.9844
0268 1419928125 202160.0469
0269 1419930468 203123.6719
0270 1419932812 202411.1406
0271 1419935156 201950.3594
0272 1419937500 201472.2188
0273 1419939843 200096.1094
0274 1419942187 200227.8125
0275 1419944531 200415.2031
0276 1419946875 199857.4531
0277 1419949218 199495.6250
0278 1419951562 199777.1250
0279 1419953906 199034.5625
0280 1419956250 199321.5781
0281 1419958593 198691.9062
0282 1419960937 198353.5781
0283 1419963281 199132.4062
0284 1419965625 198505.0156
0285 1419967968 197862.4219
0286 1419970312 198388.1094
0287 1419972656 197439.4688
0288 1419975000 196067.0312
0289 1419977343 197679.5469
0290 1419979687 197196.0469
0291 1419982031 196864.9375
0292 1419984375 196459.1406
0293 1419986718 196064.0156
0294 1419989062 195794.7031
0295 1419991406 196069.1562
0296 1419993750 196215.6094
0297 1419996093 195283.4219
0298 1419998437 194418.6250
0299 1420000781 194331.2031
0300 1420003125 195361.7812
0301 1420005468 194544.7188
0302 1420007812 193837.6406
0303 1420010156 194682.0938
0304 1420012500 194179.3750
0305 1420014843 194039.4531
0306 1420017187 193278.8594
0307 1420019531 192335.5469
0308 1420021875 192844.5000
0309 1420024218 193498.9219
0310 1420026562 193705.2344
0311 1420028906 193066.1406
0312 1420031250 193660.6719
0313 1420033593 193036.7344
0314 1420035937 192734.6719
0315 1420038281 191963.5938
0316 1420040625 192544.1406
0317 1420042968 191882.2500
0318 1420045312 191921.6562
0319 1420047656 191964.7656
0320 1420050000 191713.9688
0321 1420052343 191259.1875
0322 1420054687 191915.1250
0323 1420057031 192474.0312
0324 1420059375 191519.9062
0325 1420061718 190850.9688
0326 1420064062 191130.3438
0327 1420066406 190580.3438
0328 1420068750 190684.3125
0329 1420071093 191325.4531
0330 1420073437 190905.0156
0331 1420075781 191399.5938
0332 1420078125 191166.7344
0333 1420080468 190721.0000
0334 1420082812 190216.3125
0335 1420085156 191298.7969
0336 1420087500 190893.0156
0337 1420089843 190679.0000
0338 1420092187 190277.9219
0339 1420094531 190476.7969
0340 1420096875 189940.0469
0341 1420099218 190663.8750
0342 1420101562 191424.9531
0343 1420103906 190564.6094
0344 1420106250 189998.6562
0345 1420108593 190299.3750
0346 1420110937 189996.5469
0347 1420113281 189926.0938
0348 1420115625 189905.3594
0349 1420117968 190186.2656
0350 1420120312 190497.6250
0351 1420122656 190548.5469
0352 1420125000 190332.0156
0353 1420127343 190743.6406
0354 1420129687 190514.4062
0355 1420132031 190216.0156
0356 1420134375 190241.3750
0357 1420136718 190806.5156
0358 1420139062 191070.1719
0359 1420141406 190585.7969
0360 1420143750 190569.4375
0361 1420146093 190721.6094
0362 1420148437 191383.0625
0363 1420150781 190783.0469
0364 1420153125 191382.7500
0365 1420155468 191189.7188
0366 1420157812 192085.4531
0367 1420160156 191476.0312
0368 1420162500 191883.7188
0369 1420164843 191606.3594
0370 1420167187 191730.7656
0371 1420169531 192713.7500
0372 1420171875 192630.7812
0373 1420174218 192908.9219
0374 1420176562 192303.6719
0375 1420178906 192302.4844
0376 1420181250 193218.4688
0377 1420183593 193434.1406
0378 1420185937 193851.2656
0379 1420188281 193037.8906
0380 1420190625 193285.7969
0381 1420192968 192869.6094
0382 1420195312 193178.7812
0383 1420197656 193175.6094
0384 1420200000 193385.8438
0385 1420202343 194062.3906
0386 1420204687 194321.4375
0387 1420207031 193604.6719
0388 1420209375 194592.4375
0389 1420211718 194494.8906
0390 1420214062 195359.0781
0391 1420216406 194860.0469
0392 1420218750 195492.4062
0393 1420221093 195759.6094
0394 1420223437 195695.5625
0395 1420225781 196474.4531
0396 1420228125 196987.0312
0397 1420230468 196784.0156
0398 1420232812 195960.5469
0399 1420235156 196066.8750
0400 1420237500 196222.0469
0401 1420239843 197306.9844
0402 1420242187 197486.2656
0403 1420244531 197333.5312
0404 1420246875 197588.4688
0405 1420249218 197625.6719
0406 1420251562 198255.0000
0407 1420253906 198812.2031
0408 1420256250 198941.5000
0409 1420258593 198864.4375
0410 1420260937 198539.6562
0411 1420263281 199580.4219
0412 1420265625 199647.6875
0413 1420267968 199099.7969
0414 1420270312 199406.7656
0415 1420272656 199914.8906
0416 1420275000 199641.9531
0417 1420277343 200976.4531
0418 1420279687 201117.3750
0419 1420282031 200664.5156
0420 1420284375 201510.5938
0421 1420286718 200961.9219
0422 1420289062 200958.9062
0423 1420291406 202186.3594
0424 1420293750 202463.7656
0425 1420296093 202458.0625
0426 1420298437 202331.1719
0427 1420300781 203319.1875
0428 1420303125 203528.6406
0429 1420305468 203159.0625
0430 1420307812 203702.8594
0431 1420310156 203912.9531
0432 1420312500 203654.6562
0433 1420314843 203954.4531
0434 1420317187 203842.7344
0435 1420319531 204227.5469
0436 1420321875 204635.9219
0437 1420324218 205184.7031
0438 1420326562 205917.6250
0439 1420328906 206433.2344
0440 1420331250 205466.3125
0441 1420333593 204921.1250
0442 1420335937 206345.6094
0443 1420338281 205823.5312
0444 1420340625 206211.8906
0445 1420342968 206615.3125
0446 1420345312 205861.3906
0447 1420347656 207076.0312
0448 1420350000 206837.8125
0449 1420352343 207199.3438
0450 1420354687 207182.7031
0451 1420357031 208057.6406
0452 1420359375 208384.2656
0453 1420361718 209801.4688
0454 1420364062 208583.1406
0455 1420366406 208512.6875
0456 1420368750 209738.5625
0457 1420371093 209534.3125
0458 1420373437 208785.2031
0459 1420375781 208643.1719
0460 1420378125 210070.7969
0461 1420380468 210615.2812
0462 1420382812 210400.8906
0463 1420385156 209583.2812
0464 1420387500 210140.8750
0465 1420389843 210347.2812
0466 1420392187 210778.9844
0467 1420394531 211479.7031
0468 1420396875 211642.8906
0469 1420399218 212040.3281
0470 1420401562 211917.6094
0471 1420403906 211366.9688
0472 1420406250 212507.8125
0473 1420408593 212415.4844
0474 1420410937 211333.9219
0475 1420413281 213398.0312
0476 1420415625 211932.7812
0477 1420417968 212619.5469
0478 1420420312 213027.8125
0479 1420422656 213570.8594
0480 1420425000 213344.3594
0481 1420427343 212544.5781
0482 1420429687 213289.9219
0483 1420432031 213050.1562
0484 1420434375 213271.0312
0485 1420436718 213493.2500
0486 1420439062 213418.0156
0487 1420441406 213758.4062
0488 1420443750 214032.9531
0489 1420446093 214671.7500
0490 1420448437 214128.7656
0491 1420450781 214143.3438
0492 1420453125 213868.0000
0493 1420455468 213815.7344
0494 1420457812 214341.2344
0495 1420460156 213739.2969
0496 1420462500 213903.9844
0497 1420464843 214238.9062
0498 1420467187 214116.5312
0499 1420469531 214315.8438
0500 1420471875 213301.8906
0501 1420474218 213094.8125
0502 1420476562 214169.0469
0503 1420478906 213991.5156
0504 1420481250 214139.2188
0505 1420483593 214345.3125
0506 1420485937 214060.9688
0507 1420488281 213306.9219
0508 1420490625 213660.1719
0509 1420492968 213797.2969
0510 1420495312 214062.4219
0511 1420497656 213594.3750
0512 1420500000 213443.5469
0513 1420502343 213652.8750
0514 1420504687 213986.3438
0515 1420507031 213517.5625
0516 1420509375 213782.1875
0517 1420511718 213017.1250
0518 1420514062 214160.9688
0519 1420516406 213007.4219
0520 1420518750 212989.1094
0521 1420521093 212555.6406
0522 1420523437 213379.7500
0523 1420525781 212825.7188
0524 1420528125 212531.4531
0525 1420530468 213022.0000
0526 1420532812 211962.9531
0527 1420535156 212121.2188
0528 1420537500 211530.7031
0529 1420539843 212221.4062
0530 1420542187 212196.3750
0531 1420544531 212511.7812
0532 1420546875 211191.7031
0533 1420549218 211940.4062
0534 1420551562 211123.1875
0535 1420553906 210728.4844
0536 1420556250 211298.6406
0537 1420558593 211067.4844
0538 1420560937 211525.8281
0539 1420563281 210592.6406
0540 1420565625 210302.3750
0541 1420567968 209250.8281
0542 1420570312 209394.4531
0543 1420572656 209910.8594
0544 1420575000 209341.8594
0545 1420577343 209729.7500
0546 1420579687 208864.5781
0547 1420582031 208762.2656
0548 1420584375 209097.3281
0549 1420586718 208558.4844
0550 1420589062 208491.6719
0551 1420591406 208822.0938
0552 1420593750 208600.3594
0553 1420596093 208234.6094
0554 1420598437 206726.6719
0555 1420600781 206386.5000
0556 1420603125 207039.8125
0557 1420605468 206929.8906
0558 1420607812 206011.8281
0559 1420610156 206834.0938
0560 1420612500 206144.6094
0561 1420614843 206564.4062
0562 1420617187 206367.0156
0563 1420619531 206206.8438
0564 1420621875 204702.0625
0565 1420624218 203891.0625
0566 1420626562 204492.1562
0567 1420628906 204133.9062
0568 1420631250 204649.8125
0569 1420633593 204799.8438
0570 1420635937 203349.2344
0571 1420638281 203967.4844
0572 1420640625 203290.4844
0573 1420642968 202668.8438
0574 1420645312 203280.4688
0575 1420647656 202073.1250
0576 1420650000 201965.5938
0577 1420652343 201829.4375
0578 1420654687 201680.6875
0579 1420657031 201291.7344
0580 1420659375 200782.1250
0581 1420661718 200463.1719
0582 1420664062 199937.8594
0583 1420666406 200113.9531
0584 1420668750 200138.5781
0585 1420671093 198910.0938
0586 1420673437 199443.7656
0587 1420675781 198000.2344
0588 1420678125 197925.8594
0589 1420680468 198095.8125
0590 1420682812 198677.4219
0591 1420685156 197301.6562
0592 1420687500 197601.7031
0593 1420689843 197543.0938
0594 1420692187 197321.5156
0595 1420694531 196359.4844
0596 1420696875 195612.9375
0597 1420699218 195639.3281
0598 1420701562 195207.1406
0599 1420703906 195288.8906
0600 1420706250 195445.0938
0601 1420708593 195430.2812
0602 1420710937 194991.7812
0603 1420713281 194383.8906
0604 1420715625 194395.5469
0605 1420717968 193734.4531
0606 1420720312 193538.7500
0607 1420722656 192613.1406
0608 1420725000 193350.0781
0609 1420727343 192891.7500
0610 1420729687 192400.9531
0611 1420732031 192372.4062
0612 1420734375 192243.0469
0613 1420736718 191136.2656
0614 1420739062 190368.0938
0615 1420741406 190746.5625
0616 1420743750 190240.8594
0617 1420746093 190481.2812
0618 1420748437 189321.8281
0619 1420750781 188740.5625
0620 1420753125 189290.5156
0621 1420755468 189124.7188
0622 1420757812 188586.4688
0623 1420760156 188176.3125
0624 1420762500 188467.7031
0625 1420764843 188418.0938
0626 1420767187 187806.8281
0627 1420769531 187075.1250
0628 1420771875 187165.9844
0629 1420774218 186221.1250
0630 1420776562 187462.1875
0631 1420778906 186625.7031
0632 1420781250 185764.4844
0633 1420783593 185539.8906
0634 1420785937 185630.4062
0635 1420788281 185705.6719
0636 1420790625 185683.0625
0637 1420792968 184891.7188
0638 1420795312 184929.7500
0639 1420797656 184974.4688
0640 1420800000 184712.9375
0641 1420802343 184218.9219
0642 1420804687 184045.7656
0643 1420807031 184350.0312
0644 1420809375 183898.4375
0645 1420811718 183705.7656
0646 1420814062 183615.9219
0647 1420816406 183377.2500
0648 1420818750 183137.1250
0649 1420821093 182491.2812
0650 1420823437 182205.2812
0651 1420825781 182517.4062
0652 1420828125 181915.5625
0653 1420830468 181098.7812
0654 1420832812 181624.1094
0655 1420835156 181127.2344
0656 1420837500 181640.7031
0657 1420839843 181724.3125
0658 1420842187 181492.9844
0659 1420844531 181520.5312
0660 1420846875 181223.4375
0661 1420849218 181115.1250
0662 1420851562 179760.4531
0663 1420853906 180080.3750
0664 1420856250 181001.0625
0665 1420858593 180570.9219
0666 1420860937 180758.7500
0667 1420863281 180597.5781
0668 1420865625 179840.2969
0669 1420867968 180485.4531
0670 1420870312 179519.6875
0671 1420872656 179436.9062
0672 1420875000 179337.3438
0673 1420877343 179148.7656
0674 1420879687 178951.1562
0675 1420882031 178621.9219
0676 1420884375 179213.8906
0677 1420886718 179002.9375
0678 1420889062 178696.2188
0679 1420891406 178888.7969
0680 1420893750 178703.7656
0681 1420896093 178484.2969
0682 1420898437 178811.3281
0683 1420900781 178550.5000
0684 1420903125 177802.2656
0685 1420905468 178208.9688
0686 1420907812 178837.6719
0687 1420910156 178610.0938
0688 1420912500 178472.4531
0689 1420914843 178351.9531
0690 1420917187 178877.5469
0691 1420919531 178237.5469
0692 1420921875 178195.6406
0693 1420924218 177906.9375
0694 1420926562 178701.7656
0695 1420928906 178592.5938
0696 1420931250 179573.2188
0697 1420933593 179366.6406
0698 1420935937 177864.1562
0699 1420938281 178381.6719
0700 1420940625 179124.1406
0701 1420942968 179120.5312
0702 1420945312 179271.5781
0703 1420947656 178688.4219
0704 1420950000 179551.5469
0705 1420952343 179585.9844
0706 1420954687 178540.4062
0707 1420957031 179279.0312
0708 1420959375 179241.7344
0709 1420961718 179383.6406
0710 1420964062 179608.2656
0711 1420966406 179573.8906
0712 1420968750 180192.3906
0713 1420971093 180301.5469
0714 1420973437 179846.9062
0715 1420975781 179561.5781
0716 1420978125 179787.5938
0717 1420980468 180752.9844
0718 1420982812 180331.0938
0719 1420985156 179380.2969
0720 1420987500 180486.1406
0721 1420989843 179887.8438
0722 1420992187 181070.0938
0723 1420994531 181169.5625
0724 1420996875 181274.6094
0725 1420999218 181499.4844
0726 1421001562 181846.4688
0727 1421003906 181796.7500
0728 1421006250 180728.4688
0729 1421008593 181291.5156
0730 1421010937 182498.8906
0731 1421013281 182956.0938
0732 1421015625 183311.8594
0733 1421017968 182643.1562
0734 1421020312 182956.4219
0735 1421022656 184159.5625
0736 1421025000 184124.9688
0737 1421027343 183581.0312
0738 1421029687 183682.6562
0739 1421032031 184303.1406
0740 1421034375 183642.3281
0741 1421036718 183715.8906
0742 1421039062 184245.0156
0743 1421041406 183855.9688
0744 1421043750 185125.3125
0745 1421046093 185199.1875
0746 1421048437 185341.6406
0747 1421050781 184376.8125
0748 1421053125 185121.5938
0749 1421055468 185414.2500
0750 1421057812 186020.7969
0751 1421060156 185788.2812
0752 1421062500 186734.8750
0753 1421064843 186986.5625
0754 1421067187 187265.1406
0755 1421069531 186896.6250
0756 1421071875 188006.9688
0757 1421074218 187288.6250
0758 1421076562 188143.6719
0759 1421078906 187779.2969
0760 1421081250 188296.7969
0761 1421083593 188681.8750
0762 1421085937 188849.9375
0763 1421088281 188601.7656
0764 1421090625 189312.9062
0765 1421092968 190040.3281
0766 1421095312 189278.6250
0767 1421097656 190354.8750
0768 1421100000 190568.8750
0769 1421102343 190356.9375
0770 1421104687 190437.0469
0771 1421107031 190537.8125
0772 1421109375 190341.2656
0773 1421111718 190875.9844
0774 1421114062 191880.0469
0775 1421116406 191242.2344
0776 1421118750 191625.5469
0777 1421121093 191414.1406
0778 1421123437 192014.9062
0779 1421125781 191865.7500
0780 1421128125 192339.1406
0781 1421130468 192502.5156
0782 1421132812 193009.6562
0783 1421135156 193320.4375
0784 1421137500 193557.9688
0785 1421139843 193240.1719
0786 1421142187 192955.7031
0787 1421144531 193882.4375
0788 1421146875 194050.8125
0789 1421149218 194563.9375
0790 1421151562 195246.5000
0791 1421153906 195412.2188
0792 1421156250 194524.7031
0793 1421158593 194680.5938
0794 1421160937 195932.8281
0795 1421163281 196210.4531
0796 1421165625 195135.5469
0797 1421167968 196002.5625
0798 1421170312 195691.8594
0799 1421172656 196476.5625
0800 1421175000 196543.8594
0801 1421177343 196827.6562
0802 1421179687 196083.8750
0803 1421182031 195986.9688
0804 1421184375 197067.2969
0805 1421186718 196875.5781
0806 1421189062 198008.9375
0807 1421191406 197657.5781
0808 1421193750 196439.4688
0809 1421196093 197591.1875
0810 1421198437 197931.0938
0811 1421200781 197109.0781
0812 1421203125 197853.8438
0813 1421205468 196870.1250
0814 1421207812 197295.0938
0815 1421210156 197628.3594
0816 1421212500 198016.4375
0817 1421214843 198295.8438
0818 1421217187 197094.3906
0819 1421219531 198241.8750
0820 1421221875 197583.1562
0821 1421224218 197024.4375
0822 1421226562 198494.8281
0823 1421228906 197345.1562
0824 1421231250 197225.8594
0825 1421233593 197909.1875
0826 1421235937 198026.9688
0827 1421238281 197279.9219
0828 1421240625 197362.7969
0829 1421242968 197487.5469
0830 1421245312 196222.6562
0831 1421247656 196974.4375
0832 1421250000 197837.3594
0833 1421252343 197700.3750
0834 1421254687 197842.4531
0835 1421257031 196063.2188
0836 1421259375 196511.4844
0837 1421261718 195903.3906
0838 1421264062 196095.7031
0839 1421266406 196653.3594
0840 1421268750 194766.2031
0841 1421271093 194695.4062
0842 1421273437 195885.0938
0843 1421275781 195934.8906
0844 1421278125 194899.4062
0845 1421280468 194645.2188
0846 1421282812 194150.6719
0847 1421285156 193849.9062
0848 1421287500 193825.7969
0849 1421289843 194254.4375
0850 1421292187 192927.9531
0851 1421294531 193688.3281
0852 1421296875 193302.9375
0853 1421299218 192274.4375
0854 1421301562 191910.4531
0855 1421303906 192696.8281
0856 1421306250 191533.8281
0857 1421308593 191073.8594
0858 1421310937 191737.7031
0859 1421313281 191178.7812
0860 1421315625 189937.8594
0861 1421317968 190367.9219
0862 1421320312 189167.8125
0863 1421322656 189447.0625
0864 1421325000 188043.6250
0865 1421327343 187640.1250
0866 1421329687 187344.0000
0867 1421332031 186498.8594
0868 1421334375 186564.9688
0869 1421336718 186828.7812
0870 1421339062 185230.9219
0871 1421341406 184736.6562
0872 1421343750 184275.8125
0873 1421346093 184182.6875
0874 1421348437 182703.5625
0875 1421350781 182570.2969
0876 1421353125 182138.5938
0877 1421355468 181095.0625
0878 1421357812 181325.5312
0879 1421360156 180771.0625
0880 1421362500 179605.4062
0881 1421364843 179198.6562
0882 1421367187 178339.3281
0883 1421369531 178266.8594
0884 1421371875 177510.7500
0885 1421374218 175904.6875
0886 1421376562 175953.1250
0887 1421378906 176011.9062
0888 1421381250 175073.1094
0889 1421383593 173313.6562
0890 1421385937 173651.4844
0891 1421388281 172299.3438
0892 1421390625 171490.6406
0893 1421392968 171678.2031
0894 1421395312 170275.7031
0895 1421397656 169939.3594
0896 1421400000 168529.4688
0897 1421402343 168816.6094
0898 1421404687 167996.1250
0899 1421407031 166820.4219
0900 1421409375 165253.4062
0901 1421411718 165053.7188
0902 1421414062 162746.0625
0903 1421416406 163216.2188
0904 1421418750 162240.9531
0905 1421421093 161271.4062
0906 1421423437 161152.1562
0907 1421425781 160413.8125
0908 1421428125 159763.4062
0909 1421430468 157464.4531
0910 1421432812 157284.1250
0911 1421435156 156079.5469
0912 1421437500 155753.7656
0913 1421439843 154464.5156
0914 1421442187 154043.2969
0915 1421444531 152826.2031
0916 1421446875 152031.2812
0917 1421449218 150944.8438
0918 1421451562 149528.3438
0919 1421453906 148541.8438
0920 1421456250 148044.6719
0921 1421458593 147563.6406
0922 1421460937 146391.8750
0923 1421463281 145272.5469
0924 1421465625 144803.4531
0925 1421467968 143292.0000
0926 1421470312 142364.1406
0927 1421472656 141220.5469
0928 1421475000 140762.7031
0929 1421477343 139161.2656
0930 1421479687 138553.5625
0931 1421482031 137758.9844
0932 1421484375 136762.6406
0933 1421486718 135646.1875
0934 1421489062 134609.9688
0935 1421491406 134295.5781
0936 1421493750 132136.7812
0937 1421496093 131497.1562
0938 1421498437 130452.8594
0939 1421500781 129315.6328
0940 1421503125 129223.4531
0941 1421505468 128274.0156
0942 1421507812 127024.7500
0943 1421510156 126000.7188
0944 1421512500 124764.0000
0945 1421514843 123755.2422
0946 1421517187 122925.7500
0947 1421519531 122192.8984
0948 1421521875 121130.4375
0949 1421524218 119995.1250
0950 1421526562 119315.4844
0951 1421528906 117797.4141
0952 1421531250 116855.0469
0953 1421533593 115906.5625
0954 1421535937 115131.2344
0955 1421538281 113920.1484
0956 1421540625 113258.0938
0957 1421542968 111707.3438
0958 1421545312 111077.1250
0959 1421547656 110819.5000
0960 1421550000 110117.8906
0961 1421552343 108982.0078
0962 1421554687 107138.2891
0963 1421557031 106718.4766
0964 1421559375 105725.3047
0965 1421561718 104229.7344
0966 1421564062 103148.0156
0967 1421566406 102311.4688
0968 1421568750 101901.3672
0969 1421571093 100957.4219
0970 1421573437 99945.0312
0971 1421575781 98753.2109
0972 1421578125 98388.6094
0973 1421580468 97124.9844
0974 1421582812 97007.2109
0975 1421585156 95603.2891
0976 1421587500 95197.5703
0977 1421589843 93945.9922
0978 1421592187 93050.5938
0979 1421594531 91929.8281
0980 1421596875 90958.3984
0981 1421599218 91024.9531
0982 1421601562 89998.3438
0983 1421603906 88734.2812
0984 1421606250 88006.5781
0985 1421608593 87598.4375
0986 1421610937 86832.1094
0987 1421613281 85743.7109
0988 1421615625 85016.5000
0989 1421617968 83945.3281
0990 1421620312 83337.1250
0991 1421622656 83152.0000
0992 1421625000 82179.3594
0993 1421627343 81497.0938
0994 1421629687 80833.9922
0995 1421632031 80047.5781
0996 1421634375 79102.7812
0997 1421636718 78614.6250
0998 1421639062 77914.6406
0999 1421641406 77089.6953
1000 1421643750 76497.1016
1001 1421646093 75999.4141
1002 1421648437 75315.0938
1003 1421650781 74542.6172
1004 1421653125 74351.5312
1005 1421655468 73365.6797
1006 1421657812 73058.3359
1007 1421660156 72291.3672
1008 1421662500 71417.5469
1009 1421664843 70969.4844
1010 1421667187 70452.5625
1011 1421669531 69851.2344
1012 1421671875 69373.1406
1013 1421674218 68961.2109
1014 1421676562 68308.1094
1015 1421678906 67783.5000
1016 1421681250 67041.2031
1017 1421683593 66790.5703
1018 1421685937 66585.8203
1019 1421688281 65977.5859
1020 1421690625 65298.8281
1021 1421692968 64712.1172
1022 1421695312 64251.3320
1023 1421697656 63768.5859
