# FILE      =  Integrate24.not
# NOTEA     = Small 8inch bucket horn RTLSDR
# NOTEB     = Spectral Integration
# OBSERVER  = Science Aficionado
# DEVICE    = rtl=0,bias=1
# DATADIR   = ../data/
# SITE      = Small 8inch bucket horn RTLSDR
# CITY      = Green Bank
# REGION    = West Virginia
# COUNTRY   = US
# TELTYPE   = Bubble Wrap  Horn
# FRAME     = TOPO
# GAIN1     = 49.6
# GAIN2     = 11.0
# GAIN3     = 11.0
# GAIN4     = 0.0
# Count     = 1024
# REFFREQ   = 1420405751.768
# OBSFREQ   = 1420500000.0
# OBSBW     = 2400000.0
# Duration  = 43.701756
# DeltaX    = 5859.375
# TSYS      = 200.0
# TRX       = 100.0
# TRMS      = 2.0
# TINT      = 1.0
# KPERC     = 100.0
# GAINFACT  = 1.0
# BUNIT     = Counts
# NCHAN     = 1024
# NSPEC     = 1
# NTIME     = 0
# NSAMPLES  = 0
# EPEAK     = 4.10875183718
# ERMS      = 0.995973393526
# EMJD      = 58568.808999981004 
# REFCHAN   = 512.0
# REFSAMPL  = 256.0
# NAVE      = 412
# NMEDIAN   = 1024
# Fft_rate  = 5000
# UTC       = 2022-02-17 19:05:00.036977
# SECONDS   =       0.0000000000 
# LST       = 23:36:37.030
# AZ        = 0.0
# EL        = 90.0
# TELLON    = -79:49:54.459
# TELLAT    = +38:25:19.196
# TELALT    = 819.676
# RA        = 23:34:28.370
# DEC       = +38:10:42.400
# GALLON    = 106:40:40.10
# GALLAT    = -22:15:07.00
# ALT_SUN   = +35:25:25.5
# AZ_SUN    = +207:54:15.2
# ETAA      = 0.8
# ETAB      = 0.99
# POLANGLE  = 0.0
# TELSIZEAM = 1.0
# TELSIZEBM = 1.0
# AST_VERS  = 5.0.1
# N  Frequency  Intensity 
#       (Hz)    (Counts) 
0000 1419300000 16.2226
0001 1419302343 16.2451
0002 1419304687 16.2119
0003 1419307031 16.2881
0004 1419309375 16.2337
0005 1419311718 16.1041
0006 1419314062 15.8634
0007 1419316406 15.9069
0008 1419318750 15.8831
0009 1419321093 15.5387
0010 1419323437 15.7668
0011 1419325781 15.7442
0012 1419328125 15.2983
0013 1419330468 15.4420
0014 1419332812 15.5866
0015 1419335156 15.4993
0016 1419337500 15.3803
0017 1419339843 15.3855
0018 1419342187 15.3982
0019 1419344531 15.1517
0020 1419346875 15.4308
0021 1419349218 15.3604
0022 1419351562 15.2828
0023 1419353906 15.3705
0024 1419356250 15.2638
0025 1419358593 15.2408
0026 1419360937 15.2899
0027 1419363281 15.6058
0028 1419365625 15.7357
0029 1419367968 15.7142
0030 1419370312 15.8643
0031 1419372656 15.6777
0032 1419375000 15.8790
0033 1419377343 16.1827
0034 1419379687 16.3132
0035 1419382031 16.4310
0036 1419384375 16.4531
0037 1419386718 16.8650
0038 1419389062 16.6315
0039 1419391406 16.5769
0040 1419393750 17.1924
0041 1419396093 17.3224
0042 1419398437 17.2559
0043 1419400781 17.8520
0044 1419403125 17.8129
0045 1419405468 17.9026
0046 1419407812 18.2825
0047 1419410156 18.8152
0048 1419412500 18.7163
0049 1419414843 18.7930
0050 1419417187 19.0595
0051 1419419531 19.3463
0052 1419421875 19.2409
0053 1419424218 19.7625
0054 1419426562 20.3362
0055 1419428906 20.4744
0056 1419431250 21.0690
0057 1419433593 21.2142
0058 1419435937 21.6199
0059 1419438281 21.8280
0060 1419440625 21.6391
0061 1419442968 22.1366
0062 1419445312 22.7029
0063 1419447656 22.8414
0064 1419450000 22.8647
0065 1419452343 23.0672
0066 1419454687 23.3727
0067 1419457031 23.9497
0068 1419459375 24.2872
0069 1419461718 24.5464
0070 1419464062 25.1160
0071 1419466406 25.1248
0072 1419468750 25.8848
0073 1419471093 26.1950
0074 1419473437 26.0710
0075 1419475781 26.9401
0076 1419478125 26.9081
0077 1419480468 27.1612
0078 1419482812 27.6814
0079 1419485156 27.6612
0080 1419487500 27.8358
0081 1419489843 28.4476
0082 1419492187 28.9807
0083 1419494531 29.6604
0084 1419496875 29.4261
0085 1419499218 30.2748
0086 1419501562 30.1404
0087 1419503906 29.9534
0088 1419506250 31.2344
0089 1419508593 31.5111
0090 1419510937 31.0136
0091 1419513281 31.5910
0092 1419515625 31.8614
0093 1419517968 32.0693
0094 1419520312 32.4419
0095 1419522656 32.9670
0096 1419525000 33.3365
0097 1419527343 33.7113
0098 1419529687 34.1271
0099 1419532031 34.2858
0100 1419534375 34.6508
0101 1419536718 35.5139
0102 1419539062 35.6162
0103 1419541406 35.5983
0104 1419543750 36.0703
0105 1419546093 36.9139
0106 1419548437 36.5113
0107 1419550781 36.6128
0108 1419553125 37.8265
0109 1419555468 37.5217
0110 1419557812 37.7628
0111 1419560156 38.2692
0112 1419562500 38.7877
0113 1419564843 38.9439
0114 1419567187 39.5911
0115 1419569531 39.7695
0116 1419571875 39.1311
0117 1419574218 39.1498
0118 1419576562 40.2052
0119 1419578906 40.9579
0120 1419581250 40.6933
0121 1419583593 41.3901
0122 1419585937 41.4686
0123 1419588281 41.3416
0124 1419590625 41.7852
0125 1419592968 42.2333
0126 1419595312 42.9104
0127 1419597656 43.2005
0128 1419600000 44.1546
0129 1419602343 43.5510
0130 1419604687 43.5825
0131 1419607031 44.4083
0132 1419609375 43.9257
0133 1419611718 44.1184
0134 1419614062 44.8945
0135 1419616406 45.0832
0136 1419618750 45.2741
0137 1419621093 45.7259
0138 1419623437 45.7634
0139 1419625781 46.1031
0140 1419628125 46.2549
0141 1419630468 46.8048
0142 1419632812 47.1077
0143 1419635156 47.1361
0144 1419637500 47.2923
0145 1419639843 47.4690
0146 1419642187 47.0878
0147 1419644531 47.3202
0148 1419646875 47.8832
0149 1419649218 48.2754
0150 1419651562 49.1682
0151 1419653906 49.0694
0152 1419656250 48.3769
0153 1419658593 49.2328
0154 1419660937 49.1316
0155 1419663281 48.7980
0156 1419665625 49.7277
0157 1419667968 50.5744
0158 1419670312 49.7349
0159 1419672656 50.0209
0160 1419675000 50.3863
0161 1419677343 50.0218
0162 1419679687 50.6563
0163 1419682031 50.9172
0164 1419684375 50.9900
0165 1419686718 50.7341
0166 1419689062 51.2285
0167 1419691406 52.4458
0168 1419693750 51.4304
0169 1419696093 51.4960
0170 1419698437 53.0227
0171 1419700781 52.5624
0172 1419703125 51.3780
0173 1419705468 52.1641
0174 1419707812 51.2757
0175 1419710156 51.9712
0176 1419712500 52.5223
0177 1419714843 52.8901
0178 1419717187 53.0475
0179 1419719531 53.4444
0180 1419721875 53.5872
0181 1419724218 52.2769
0182 1419726562 53.1249
0183 1419728906 53.8788
0184 1419731250 53.3085
0185 1419733593 53.0534
0186 1419735937 53.8951
0187 1419738281 53.3712
0188 1419740625 53.4224
0189 1419742968 53.6576
0190 1419745312 53.7299
0191 1419747656 53.6054
0192 1419750000 54.4034
0193 1419752343 54.6727
0194 1419754687 53.8956
0195 1419757031 53.9304
0196 1419759375 55.2261
0197 1419761718 53.8868
0198 1419764062 53.8828
0199 1419766406 54.8796
0200 1419768750 53.9468
0201 1419771093 53.1792
0202 1419773437 54.2785
0203 1419775781 54.4554
0204 1419778125 54.4441
0205 1419780468 55.2031
0206 1419782812 54.5266
0207 1419785156 54.4092
0208 1419787500 54.1819
0209 1419789843 55.3705
0210 1419792187 54.7005
0211 1419794531 55.0811
0212 1419796875 54.7001
0213 1419799218 53.7757
0214 1419801562 53.3625
0215 1419803906 53.9479
0216 1419806250 54.3144
0217 1419808593 54.0153
0218 1419810937 54.4045
0219 1419813281 55.0864
0220 1419815625 53.9823
0221 1419817968 54.2980
0222 1419820312 55.1950
0223 1419822656 54.7437
0224 1419825000 55.1088
0225 1419827343 54.3875
0226 1419829687 54.4184
0227 1419832031 54.4954
0228 1419834375 54.0186
0229 1419836718 54.0430
0230 1419839062 54.3007
0231 1419841406 54.6261
0232 1419843750 54.4019
0233 1419846093 53.5559
0234 1419848437 54.1525
0235 1419850781 54.3108
0236 1419853125 54.1017
0237 1419855468 53.7369
0238 1419857812 54.9579
0239 1419860156 54.2851
0240 1419862500 53.6353
0241 1419864843 53.3855
0242 1419867187 54.0712
0243 1419869531 53.6185
0244 1419871875 53.5658
0245 1419874218 54.3036
0246 1419876562 53.5075
0247 1419878906 53.3266
0248 1419881250 54.1428
0249 1419883593 53.8942
0250 1419885937 53.2267
0251 1419888281 53.8422
0252 1419890625 52.8577
0253 1419892968 52.6417
0254 1419895312 53.0975
0255 1419897656 52.6362
0256 1419900000 52.9068
0257 1419902343 53.1314
0258 1419904687 53.7279
0259 1419907031 53.1927
0260 1419909375 52.6527
0261 1419911718 52.8311
0262 1419914062 52.7979
0263 1419916406 52.4391
0264 1419918750 53.5819
0265 1419921093 52.8080
0266 1419923437 51.6035
0267 1419925781 52.4278
0268 1419928125 52.2070
0269 1419930468 51.8908
0270 1419932812 52.4553
0271 1419935156 52.3192
0272 1419937500 51.6799
0273 1419939843 51.6467
0274 1419942187 52.4062
0275 1419944531 52.2835
0276 1419946875 51.9688
0277 1419949218 51.3338
0278 1419951562 51.4420
0279 1419953906 51.3229
0280 1419956250 51.7330
0281 1419958593 51.5436
0282 1419960937 50.8605
0283 1419963281 51.8304
0284 1419965625 51.6793
0285 1419967968 51.1996
0286 1419970312 51.3703
0287 1419972656 51.5161
0288 1419975000 51.3554
0289 1419977343 51.2518
0290 1419979687 51.4562
0291 1419982031 50.7749
0292 1419984375 50.7174
0293 1419986718 50.8762
0294 1419989062 50.2277
0295 1419991406 50.1609
0296 1419993750 50.6396
0297 1419996093 50.5062
0298 1419998437 50.0807
0299 1420000781 50.4463
0300 1420003125 51.0924
0301 1420005468 50.3375
0302 1420007812 50.4249
0303 1420010156 50.5081
0304 1420012500 49.7550
0305 1420014843 50.5097
0306 1420017187 50.8639
0307 1420019531 49.7818
0308 1420021875 50.0904
0309 1420024218 49.4407
0310 1420026562 49.9601
0311 1420028906 49.1724
0312 1420031250 49.7988
0313 1420033593 51.1842
0314 1420035937 49.8384
0315 1420038281 49.9830
0316 1420040625 50.0560
0317 1420042968 50.0827
0318 1420045312 49.7220
0319 1420047656 49.9403
0320 1420050000 49.4373
0321 1420052343 49.6283
0322 1420054687 49.8561
0323 1420057031 49.6511
0324 1420059375 48.9597
0325 1420061718 48.9535
0326 1420064062 49.8294
0327 1420066406 49.7367
0328 1420068750 48.8920
0329 1420071093 49.1699
0330 1420073437 49.3041
0331 1420075781 49.2788
0332 1420078125 49.3362
0333 1420080468 49.1363
0334 1420082812 49.2504
0335 1420085156 49.4272
0336 1420087500 49.1425
0337 1420089843 49.0961
0338 1420092187 49.6167
0339 1420094531 49.5523
0340 1420096875 49.3168
0341 1420099218 49.0207
0342 1420101562 49.1583
0343 1420103906 48.7324
0344 1420106250 49.4541
0345 1420108593 49.9653
0346 1420110937 49.6527
0347 1420113281 48.8613
0348 1420115625 49.0744
0349 1420117968 49.0365
0350 1420120312 48.1713
0351 1420122656 48.5751
0352 1420125000 50.0300
0353 1420127343 49.6802
0354 1420129687 49.0946
0355 1420132031 49.8236
0356 1420134375 49.6997
0357 1420136718 49.5302
0358 1420139062 49.6677
0359 1420141406 49.5917
0360 1420143750 49.0914
0361 1420146093 49.6292
0362 1420148437 49.9968
0363 1420150781 48.8027
0364 1420153125 48.8699
0365 1420155468 49.0412
0366 1420157812 49.3157
0367 1420160156 49.3665
0368 1420162500 49.9387
0369 1420164843 49.7686
0370 1420167187 49.6824
0371 1420169531 49.8749
0372 1420171875 49.5440
0373 1420174218 49.7894
0374 1420176562 49.9367
0375 1420178906 50.4698
0376 1420181250 49.1299
0377 1420183593 49.5670
0378 1420185937 51.3263
0379 1420188281 49.9571
0380 1420190625 49.8883
0381 1420192968 50.0535
0382 1420195312 50.1387
0383 1420197656 50.1850
0384 1420200000 50.9793
0385 1420202343 50.9941
0386 1420204687 50.5435
0387 1420207031 50.4400
0388 1420209375 50.2460
0389 1420211718 49.8854
0390 1420214062 50.1298
0391 1420216406 50.9623
0392 1420218750 50.7990
0393 1420221093 51.4407
0394 1420223437 51.8847
0395 1420225781 51.1194
0396 1420228125 50.5234
0397 1420230468 51.1032
0398 1420232812 51.8231
0399 1420235156 51.3214
0400 1420237500 51.8348
0401 1420239843 50.8532
0402 1420242187 50.6123
0403 1420244531 50.8955
0404 1420246875 51.7122
0405 1420249218 51.1164
0406 1420251562 51.6027
0407 1420253906 51.7583
0408 1420256250 52.2254
0409 1420258593 51.8533
0410 1420260937 52.3356
0411 1420263281 52.5273
0412 1420265625 52.7048
0413 1420267968 53.0504
0414 1420270312 52.0584
0415 1420272656 52.5564
0416 1420275000 52.3275
0417 1420277343 52.6459
0418 1420279687 52.9344
0419 1420282031 53.1127
0420 1420284375 52.9877
0421 1420286718 52.6589
0422 1420289062 52.4794
0423 1420291406 53.4928
0424 1420293750 52.5564
0425 1420296093 52.7538
0426 1420298437 53.2839
0427 1420300781 53.7209
0428 1420303125 53.2151
0429 1420305468 53.6306
0430 1420307812 53.6745
0431 1420310156 53.0553
0432 1420312500 53.3460
0433 1420314843 53.1583
0434 1420317187 54.5253
0435 1420319531 54.7741
0436 1420321875 54.7257
0437 1420324218 54.5456
0438 1420326562 54.2706
0439 1420328906 54.5016
0440 1420331250 54.6178
0441 1420333593 55.0820
0442 1420335937 54.3200
0443 1420338281 55.1148
0444 1420340625 54.2892
0445 1420342968 54.9910
0446 1420345312 55.8208
0447 1420347656 55.2194
0448 1420350000 55.4947
0449 1420352343 56.2620
0450 1420354687 55.4258
0451 1420357031 55.0847
0452 1420359375 56.1244
0453 1420361718 55.8457
0454 1420364062 55.7197
0455 1420366406 55.1215
0456 1420368750 56.0655
0457 1420371093 55.3864
0458 1420373437 55.3250
0459 1420375781 56.8705
0460 1420378125 56.0839
0461 1420380468 56.2141
0462 1420382812 56.6818
0463 1420385156 56.9576
0464 1420387500 56.9030
0465 1420389843 57.0423
0466 1420392187 57.7303
0467 1420394531 57.5411
0468 1420396875 57.2213
0469 1420399218 57.7801
0470 1420401562 57.2897
0471 1420403906 57.8232
0472 1420406250 58.3657
0473 1420408593 58.4102
0474 1420410937 57.5028
0475 1420413281 59.1395
0476 1420415625 58.7632
0477 1420417968 58.0796
0478 1420420312 58.6646
0479 1420422656 58.7821
0480 1420425000 58.5025
0481 1420427343 58.7480
0482 1420429687 59.3955
0483 1420432031 59.4887
0484 1420434375 58.9993
0485 1420436718 58.7812
0486 1420439062 59.0887
0487 1420441406 59.2607
0488 1420443750 59.1308
0489 1420446093 59.1168
0490 1420448437 58.6004
0491 1420450781 58.5958
0492 1420453125 59.0714
0493 1420455468 58.6824
0494 1420457812 58.8693
0495 1420460156 58.4713
0496 1420462500 58.9613
0497 1420464843 58.7918
0498 1420467187 58.2823
0499 1420469531 58.4100
0500 1420471875 58.5064
0501 1420474218 58.5945
0502 1420476562 58.0710
0503 1420478906 58.0114
0504 1420481250 58.9579
0505 1420483593 58.4705
0506 1420485937 57.6872
0507 1420488281 58.5099
0508 1420490625 58.4346
0509 1420492968 56.9520
0510 1420495312 56.9891
0511 1420497656 57.5385
0512 1420500000 57.2655
0513 1420502343 57.4902
0514 1420504687 57.3838
0515 1420507031 57.5279
0516 1420509375 57.2121
0517 1420511718 57.3620
0518 1420514062 57.7882
0519 1420516406 57.1250
0520 1420518750 57.0415
0521 1420521093 57.8156
0522 1420523437 56.8698
0523 1420525781 56.9336
0524 1420528125 56.7203
0525 1420530468 56.5911
0526 1420532812 56.9544
0527 1420535156 57.2240
0528 1420537500 56.7372
0529 1420539843 56.4791
0530 1420542187 57.1545
0531 1420544531 56.0954
0532 1420546875 55.2242
0533 1420549218 55.6890
0534 1420551562 56.6772
0535 1420553906 55.7850
0536 1420556250 55.0929
0537 1420558593 56.4408
0538 1420560937 56.1670
0539 1420563281 54.6174
0540 1420565625 56.0007
0541 1420567968 55.9565
0542 1420570312 55.8759
0543 1420572656 55.4670
0544 1420575000 55.2291
0545 1420577343 55.1565
0546 1420579687 55.2743
0547 1420582031 55.2424
0548 1420584375 55.4833
0549 1420586718 54.7236
0550 1420589062 54.6277
0551 1420591406 54.6406
0552 1420593750 53.7960
0553 1420596093 55.0804
0554 1420598437 54.0654
0555 1420600781 54.2561
0556 1420603125 54.5384
0557 1420605468 54.7992
0558 1420607812 54.5157
0559 1420610156 54.0140
0560 1420612500 54.2526
0561 1420614843 53.8422
0562 1420617187 53.9047
0563 1420619531 53.8913
0564 1420621875 53.1360
0565 1420624218 52.9526
0566 1420626562 53.8530
0567 1420628906 53.9090
0568 1420631250 53.3768
0569 1420633593 54.0554
0570 1420635937 53.3421
0571 1420638281 53.9499
0572 1420640625 53.5741
0573 1420642968 53.3638
0574 1420645312 53.0506
0575 1420647656 53.4468
0576 1420650000 53.6129
0577 1420652343 52.6921
0578 1420654687 52.9661
0579 1420657031 52.3834
0580 1420659375 52.3784
0581 1420661718 52.3493
0582 1420664062 52.6554
0583 1420666406 52.7772
0584 1420668750 51.6364
0585 1420671093 51.8415
0586 1420673437 52.0126
0587 1420675781 51.8480
0588 1420678125 51.3896
0589 1420680468 51.6149
0590 1420682812 51.0660
0591 1420685156 50.5312
0592 1420687500 51.6898
0593 1420689843 51.4237
0594 1420692187 51.2993
0595 1420694531 51.9141
0596 1420696875 51.7347
0597 1420699218 50.8778
0598 1420701562 50.7269
0599 1420703906 51.0070
0600 1420706250 50.7545
0601 1420708593 50.5546
0602 1420710937 51.6680
0603 1420713281 50.6808
0604 1420715625 50.2097
0605 1420717968 50.8350
0606 1420720312 50.2500
0607 1420722656 49.9586
0608 1420725000 50.3506
0609 1420727343 49.9794
0610 1420729687 49.2225
0611 1420732031 50.0027
0612 1420734375 49.8411
0613 1420736718 49.9967
0614 1420739062 50.0066
0615 1420741406 50.1212
0616 1420743750 49.5804
0617 1420746093 49.0461
0618 1420748437 49.1097
0619 1420750781 48.7089
0620 1420753125 48.6660
0621 1420755468 49.6847
0622 1420757812 48.9148
0623 1420760156 48.9474
0624 1420762500 49.1550
0625 1420764843 49.0959
0626 1420767187 48.6407
0627 1420769531 48.8685
0628 1420771875 49.0454
0629 1420774218 48.5604
0630 1420776562 48.4161
0631 1420778906 48.8351
0632 1420781250 48.1664
0633 1420783593 47.6883
0634 1420785937 48.8511
0635 1420788281 48.5722
0636 1420790625 47.8784
0637 1420792968 47.9690
0638 1420795312 48.5862
0639 1420797656 47.7312
0640 1420800000 47.1568
0641 1420802343 47.7566
0642 1420804687 47.8248
0643 1420807031 48.2915
0644 1420809375 47.7156
0645 1420811718 47.8272
0646 1420814062 47.6928
0647 1420816406 47.1334
0648 1420818750 47.4079
0649 1420821093 47.1164
0650 1420823437 47.5262
0651 1420825781 48.0266
0652 1420828125 47.0141
0653 1420830468 47.1154
0654 1420832812 47.6959
0655 1420835156 46.9309
0656 1420837500 47.5847
0657 1420839843 47.4025
0658 1420842187 46.7538
0659 1420844531 46.4745
0660 1420846875 46.8057
0661 1420849218 47.1518
0662 1420851562 46.8372
0663 1420853906 46.9603
0664 1420856250 47.2098
0665 1420858593 47.0838
0666 1420860937 46.4060
0667 1420863281 46.8452
0668 1420865625 46.7987
0669 1420867968 46.6356
0670 1420870312 47.3430
0671 1420872656 46.5205
0672 1420875000 46.4080
0673 1420877343 46.8248
0674 1420879687 46.7553
0675 1420882031 47.1710
0676 1420884375 46.4573
0677 1420886718 46.8715
0678 1420889062 46.1104
0679 1420891406 45.5971
0680 1420893750 46.1823
0681 1420896093 46.4321
0682 1420898437 46.4257
0683 1420900781 46.7845
0684 1420903125 45.9798
0685 1420905468 46.1754
0686 1420907812 46.4503
0687 1420910156 46.3378
0688 1420912500 46.3971
0689 1420914843 46.3307
0690 1420917187 46.6124
0691 1420919531 46.9019
0692 1420921875 46.5233
0693 1420924218 46.2547
0694 1420926562 46.0706
0695 1420928906 45.6532
0696 1420931250 46.5523
0697 1420933593 46.6704
0698 1420935937 46.0944
0699 1420938281 46.8748
0700 1420940625 46.1382
0701 1420942968 46.0908
0702 1420945312 46.2327
0703 1420947656 46.4668
0704 1420950000 45.8754
0705 1420952343 46.6435
0706 1420954687 46.5197
0707 1420957031 45.9245
0708 1420959375 46.3492
0709 1420961718 46.4575
0710 1420964062 46.6039
0711 1420966406 45.8709
0712 1420968750 46.1124
0713 1420971093 45.7909
0714 1420973437 45.7011
0715 1420975781 46.3542
0716 1420978125 46.9502
0717 1420980468 46.4073
0718 1420982812 46.7879
0719 1420985156 46.0829
0720 1420987500 46.2681
0721 1420989843 46.3563
0722 1420992187 46.8114
0723 1420994531 46.4168
0724 1420996875 46.6326
0725 1420999218 46.4616
0726 1421001562 46.9270
0727 1421003906 46.6743
0728 1421006250 46.4705
0729 1421008593 46.7856
0730 1421010937 46.8868
0731 1421013281 47.4770
0732 1421015625 47.5281
0733 1421017968 47.4795
0734 1421020312 46.9533
0735 1421022656 46.9257
0736 1421025000 46.4699
0737 1421027343 47.1735
0738 1421029687 47.7204
0739 1421032031 47.1022
0740 1421034375 47.0367
0741 1421036718 46.6100
0742 1421039062 47.6607
0743 1421041406 47.1252
0744 1421043750 48.1649
0745 1421046093 48.1892
0746 1421048437 47.5063
0747 1421050781 47.6312
0748 1421053125 48.3514
0749 1421055468 48.2876
0750 1421057812 47.9713
0751 1421060156 48.3095
0752 1421062500 48.0612
0753 1421064843 47.4417
0754 1421067187 47.9113
0755 1421069531 48.8002
0756 1421071875 48.8846
0757 1421074218 48.5995
0758 1421076562 48.7199
0759 1421078906 48.1582
0760 1421081250 48.5136
0761 1421083593 48.7362
0762 1421085937 48.0848
0763 1421088281 48.5524
0764 1421090625 48.8217
0765 1421092968 48.2531
0766 1421095312 48.6485
0767 1421097656 48.9615
0768 1421100000 48.5577
0769 1421102343 48.7002
0770 1421104687 48.2400
0771 1421107031 49.0863
0772 1421109375 49.1413
0773 1421111718 49.3347
0774 1421114062 50.1983
0775 1421116406 49.1112
0776 1421118750 49.3245
0777 1421121093 49.5789
0778 1421123437 49.8321
0779 1421125781 49.3881
0780 1421128125 49.5748
0781 1421130468 49.1936
0782 1421132812 48.8494
0783 1421135156 49.6987
0784 1421137500 50.5577
0785 1421139843 49.8338
0786 1421142187 50.3532
0787 1421144531 50.0421
0788 1421146875 49.6447
0789 1421149218 49.6779
0790 1421151562 50.2268
0791 1421153906 50.2788
0792 1421156250 50.1399
0793 1421158593 50.0784
0794 1421160937 50.2293
0795 1421163281 50.0690
0796 1421165625 50.8014
0797 1421167968 49.9237
0798 1421170312 49.8094
0799 1421172656 50.1800
0800 1421175000 50.4333
0801 1421177343 49.9709
0802 1421179687 50.2924
0803 1421182031 51.1277
0804 1421184375 50.5468
0805 1421186718 50.7508
0806 1421189062 51.3032
0807 1421191406 51.1484
0808 1421193750 50.1065
0809 1421196093 50.9509
0810 1421198437 51.6312
0811 1421200781 51.3537
0812 1421203125 50.8075
0813 1421205468 50.3930
0814 1421207812 50.9119
0815 1421210156 50.8653
0816 1421212500 50.8878
0817 1421214843 50.8540
0818 1421217187 50.4993
0819 1421219531 50.7105
0820 1421221875 50.8182
0821 1421224218 50.6797
0822 1421226562 50.3420
0823 1421228906 50.5966
0824 1421231250 50.6167
0825 1421233593 50.5017
0826 1421235937 51.5818
0827 1421238281 51.3967
0828 1421240625 50.7303
0829 1421242968 51.4261
0830 1421245312 50.7102
0831 1421247656 49.9448
0832 1421250000 50.5963
0833 1421252343 50.3660
0834 1421254687 50.2678
0835 1421257031 50.2096
0836 1421259375 50.5484
0837 1421261718 50.4486
0838 1421264062 50.4875
0839 1421266406 50.7568
0840 1421268750 50.3938
0841 1421271093 49.6264
0842 1421273437 49.9998
0843 1421275781 49.4205
0844 1421278125 49.1132
0845 1421280468 50.1387
0846 1421282812 50.8508
0847 1421285156 49.2899
0848 1421287500 49.6460
0849 1421289843 49.5423
0850 1421292187 49.3704
0851 1421294531 50.1364
0852 1421296875 49.7594
0853 1421299218 49.3810
0854 1421301562 49.5296
0855 1421303906 49.1385
0856 1421306250 49.1329
0857 1421308593 49.0469
0858 1421310937 48.9995
0859 1421313281 48.9925
0860 1421315625 48.4440
0861 1421317968 48.8905
0862 1421320312 48.7695
0863 1421322656 48.2597
0864 1421325000 48.6129
0865 1421327343 48.2527
0866 1421329687 47.5513
0867 1421332031 47.5866
0868 1421334375 48.2402
0869 1421336718 47.7844
0870 1421339062 47.4960
0871 1421341406 48.0154
0872 1421343750 47.5383
0873 1421346093 46.8600
0874 1421348437 46.7424
0875 1421350781 46.8990
0876 1421353125 46.1141
0877 1421355468 46.9085
0878 1421357812 47.2293
0879 1421360156 46.6429
0880 1421362500 46.7481
0881 1421364843 46.0187
0882 1421367187 45.7850
0883 1421369531 45.7649
0884 1421371875 45.7470
0885 1421374218 45.3127
0886 1421376562 45.0979
0887 1421378906 45.0792
0888 1421381250 44.7994
0889 1421383593 44.4986
0890 1421385937 44.8844
0891 1421388281 44.6765
0892 1421390625 43.8114
0893 1421392968 43.9576
0894 1421395312 43.6839
0895 1421397656 43.7136
0896 1421400000 42.8268
0897 1421402343 43.1520
0898 1421404687 43.2796
0899 1421407031 42.8068
0900 1421409375 42.4847
0901 1421411718 42.3159
0902 1421414062 41.6651
0903 1421416406 41.6654
0904 1421418750 41.8321
0905 1421421093 41.3838
0906 1421423437 41.2973
0907 1421425781 41.5014
0908 1421428125 41.3401
0909 1421430468 40.4943
0910 1421432812 40.0294
0911 1421435156 40.2585
0912 1421437500 40.1024
0913 1421439843 39.7903
0914 1421442187 39.5653
0915 1421444531 39.1183
0916 1421446875 39.0348
0917 1421449218 38.7289
0918 1421451562 38.4847
0919 1421453906 38.1500
0920 1421456250 38.7221
0921 1421458593 37.8083
0922 1421460937 37.0164
0923 1421463281 37.0739
0924 1421465625 36.8905
0925 1421467968 36.6349
0926 1421470312 36.7258
0927 1421472656 36.2387
0928 1421475000 36.2131
0929 1421477343 35.8927
0930 1421479687 35.4431
0931 1421482031 35.2784
0932 1421484375 35.5152
0933 1421486718 35.2420
0934 1421489062 34.6620
0935 1421491406 34.3630
0936 1421493750 34.2737
0937 1421496093 33.9465
0938 1421498437 33.6288
0939 1421500781 33.3774
0940 1421503125 33.6169
0941 1421505468 32.7628
0942 1421507812 32.2721
0943 1421510156 32.1984
0944 1421512500 31.7875
0945 1421514843 32.3668
0946 1421517187 32.0690
0947 1421519531 31.3022
0948 1421521875 30.9737
0949 1421524218 30.8667
0950 1421526562 30.5145
0951 1421528906 30.0218
0952 1421531250 30.1076
0953 1421533593 29.9158
0954 1421535937 29.5261
0955 1421538281 28.9348
0956 1421540625 29.0396
0957 1421542968 28.6078
0958 1421545312 28.5662
0959 1421547656 28.7582
0960 1421550000 28.1607
0961 1421552343 27.9736
0962 1421554687 27.4960
0963 1421557031 27.4068
0964 1421559375 27.3619
0965 1421561718 26.8138
0966 1421564062 26.9320
0967 1421566406 26.5157
0968 1421568750 25.9511
0969 1421571093 26.1862
0970 1421573437 25.6530
0971 1421575781 25.4308
0972 1421578125 25.7248
0973 1421580468 25.3888
0974 1421582812 24.9611
0975 1421585156 24.7100
0976 1421587500 24.6091
0977 1421589843 24.1825
0978 1421592187 24.0956
0979 1421594531 23.8617
0980 1421596875 23.5053
0981 1421599218 23.5215
0982 1421601562 23.1353
0983 1421603906 22.8956
0984 1421606250 22.8896
0985 1421608593 22.8805
0986 1421610937 22.7556
0987 1421613281 22.3751
0988 1421615625 22.3761
0989 1421617968 21.8857
0990 1421620312 21.7196
0991 1421622656 21.4385
0992 1421625000 21.4507
0993 1421627343 21.0202
0994 1421629687 20.9177
0995 1421632031 20.6736
0996 1421634375 20.4947
0997 1421636718 20.5509
0998 1421639062 20.1859
0999 1421641406 20.0481
1000 1421643750 19.8357
1001 1421646093 19.8906
1002 1421648437 19.5134
1003 1421650781 19.3733
1004 1421653125 19.1230
1005 1421655468 19.0728
1006 1421657812 18.8458
1007 1421660156 18.7872
1008 1421662500 18.6017
1009 1421664843 18.3695
1010 1421667187 18.1644
1011 1421669531 18.1706
1012 1421671875 17.9932
1013 1421674218 17.9482
1014 1421676562 17.6657
1015 1421678906 17.7223
1016 1421681250 17.5191
1017 1421683593 17.4051
1018 1421685937 17.2684
1019 1421688281 17.1736
1020 1421690625 16.9690
1021 1421692968 17.0628
1022 1421695312 16.5050
1023 1421697656 16.3917
