# File: 20-04-01T035406.ast
# NOTEA     = Printed 3-Horn 1-PI#2
# NOTEB     = Sdrplay 8 MHz Test
# OBSERVER  = Science Aficionado
# DEVICE    = SDRPlay RSP1A
# DATADIR   = ../data/
# SITE      = Printed 3-Horn 1-PI#2
# CITY      = Green Bank
# REGION    = West Virginia
# COUNTRY   = US
# TELTYPE   = Bubble Wrap  Horn
# FRAME     = TOPO
# GAIN1     = 0.0
# GAIN2     = 12.0
# GAIN3     = 12.0
# GAIN4     = 0.0
# Count     = 360000
# CenterFreq= 1420000000.0
# Bandwidth = 8000000.0
# Duration  = 139.80962
# DeltaX    = 5859.375
# BUNIT     = Counts
# NCHAN     = 2048
# NSPEC     = 1
# NTIME     = 0
# NSAMPLES  = 0
# EPEAK     = 4.10875183718
# ERMS      = 0.995973393526
# EMJD      = 58568.808999981004 
# REFCHAN   = 1024.0
# REFSAMPL  = 256.0
# NAVE      = 600
# NMEDIAN   = 1024
# Fft_rate  = 5000
# UTC       = 2020-04-01 03:54:06.117673
# SECONDS   =       0.0000000000 
# LST       = 11:14:37.740
# AZ        = 180.0
# EL        = 90.0
# TELLON    = -79:50:22.920
# TELLAT    = +38:25:59.160
# RA        = 11:12:24.190
# DEC       = +38:39:09.200
# GALLON    = 177:31:18.20
# GALLAT    = +66:20:28.80
# ALT_SUN   = -42:11:05.5
# AZ_SUN    = +329:20:50.2
# ETAA      = 0.8
# ETAB      = 0.99
# POLANGLE  = 0.0
# TELSIZEAM = 1.0
# TELSIZEBM = 1.0
# AST_VERS  = 05.01
0000 1415502197 0.0688
0001 1415506591 0.0682
0002 1415510986 0.0679
0003 1415515380 0.0672
0004 1415519775 0.0668
0005 1415524169 0.0663
0006 1415528564 0.0660
0007 1415532958 0.0662
0008 1415537353 0.0656
0009 1415541748 0.0653
0010 1415546142 0.0648
0011 1415550537 0.0644
0012 1415554931 0.0645
0013 1415559326 0.0640
0014 1415563720 0.0637
0015 1415568115 0.0634
0016 1415572509 0.0629
0017 1415576904 0.0628
0018 1415581298 0.0626
0019 1415585693 0.0620
0020 1415590087 0.0615
0021 1415594482 0.0612
0022 1415598876 0.0606
0023 1415603271 0.0602
0024 1415607666 0.0597
0025 1415612060 0.0589
0026 1415616455 0.0585
0027 1415620849 0.0576
0028 1415625244 0.0567
0029 1415629638 0.0562
0030 1415634033 0.0550
0031 1415638427 0.0540
0032 1415642822 0.0526
0033 1415647216 0.0513
0034 1415651611 0.0500
0035 1415656005 0.0486
0036 1415660400 0.0468
0037 1415664794 0.0453
0038 1415669189 0.0436
0039 1415673583 0.0418
0040 1415677978 0.0397
0041 1415682373 0.0377
0042 1415686767 0.0356
0043 1415691162 0.0335
0044 1415695556 0.0315
0045 1415699951 0.0293
0046 1415704345 0.0273
0047 1415708740 0.0252
0048 1415713134 0.0235
0049 1415717529 0.0218
0050 1415721923 0.0205
0051 1415726318 0.0194
0052 1415730712 0.0186
0053 1415735107 0.0184
0054 1415739501 0.0188
0055 1415743896 0.0199
0056 1415748291 0.0219
0057 1415752685 0.0248
0058 1415757080 0.0289
0059 1415761474 0.0342
0060 1415765869 0.0413
0061 1415770263 0.0500
0062 1415774658 0.0606
0063 1415779052 0.0732
0064 1415783447 0.0884
0065 1415787841 0.1065
0066 1415792236 0.1283
0067 1415796630 0.1532
0068 1415801025 0.1813
0069 1415805419 0.2142
0070 1415809814 0.2516
0071 1415814208 0.2951
0072 1415818603 0.3434
0073 1415822998 0.3991
0074 1415827392 0.4627
0075 1415831787 0.5302
0076 1415836181 0.6087
0077 1415840576 0.6964
0078 1415844970 0.7906
0079 1415849365 0.8950
0080 1415853759 1.0133
0081 1415858154 1.1451
0082 1415862548 1.2889
0083 1415866943 1.4491
0084 1415871337 1.6228
0085 1415875732 1.8045
0086 1415880126 2.0074
0087 1415884521 2.2260
0088 1415888916 2.4739
0089 1415893310 2.7413
0090 1415897705 3.0109
0091 1415902099 3.3318
0092 1415906494 3.6670
0093 1415910888 4.0006
0094 1415915283 4.3966
0095 1415919677 4.8171
0096 1415924072 5.2356
0097 1415928466 5.6900
0098 1415932861 6.1974
0099 1415937255 6.7546
0100 1415941650 7.3181
0101 1415946044 7.9439
0102 1415950439 8.5635
0103 1415954833 9.2496
0104 1415959228 9.9859
0105 1415963623 10.7905
0106 1415968017 11.5879
0107 1415972412 12.3745
0108 1415976806 13.3141
0109 1415981201 14.2310
0110 1415985595 15.2749
0111 1415989990 16.3557
0112 1415994384 17.6076
0113 1415998779 18.8055
0114 1416003173 20.3696
0115 1416007568 21.2695
0116 1416011962 22.5924
0117 1416016357 23.8418
0118 1416020751 25.2909
0119 1416025146 26.8622
0120 1416029541 28.3781
0121 1416033935 30.0454
0122 1416038330 31.6474
0123 1416042724 33.4166
0124 1416047119 35.3059
0125 1416051513 37.1450
0126 1416055908 39.1464
0127 1416060302 41.2082
0128 1416064697 43.3357
0129 1416069091 45.4503
0130 1416073486 47.6304
0131 1416077880 49.9088
0132 1416082275 52.4355
0133 1416086669 54.8501
0134 1416091064 57.4593
0135 1416095458 60.0961
0136 1416099853 62.6097
0137 1416104248 65.4752
0138 1416108642 68.1157
0139 1416113037 70.7104
0140 1416117431 74.1498
0141 1416121826 77.2000
0142 1416126220 79.9385
0143 1416130615 83.1512
0144 1416135009 86.3310
0145 1416139404 89.5835
0146 1416143798 93.2595
0147 1416148193 96.5807
0148 1416152587 99.9507
0149 1416156982 103.8142
0150 1416161376 107.6875
0151 1416165771 111.1037
0152 1416170166 115.3508
0153 1416174560 119.0588
0154 1416178955 123.2244
0155 1416183349 127.7202
0156 1416187744 131.5673
0157 1416192138 136.3669
0158 1416196533 140.8176
0159 1416200927 144.5215
0160 1416205322 149.7912
0161 1416209716 153.7653
0162 1416214111 158.4939
0163 1416218505 162.6648
0164 1416222900 167.5733
0165 1416227294 171.4262
0166 1416231689 176.2611
0167 1416236083 180.5726
0168 1416240478 186.0154
0169 1416244873 190.3703
0170 1416249267 193.9704
0171 1416253662 198.4548
0172 1416258056 202.8045
0173 1416262451 207.2068
0174 1416266845 211.3449
0175 1416271240 214.8177
0176 1416275634 218.4640
0177 1416280029 222.8102
0178 1416284423 226.2827
0179 1416288818 229.2543
0180 1416293212 233.3383
0181 1416297607 234.5851
0182 1416302001 235.7419
0183 1416306396 238.4839
0184 1416310791 240.0630
0185 1416315185 239.2715
0186 1416319580 241.1590
0187 1416323974 242.1242
0188 1416328369 241.9592
0189 1416332763 242.2668
0190 1416337158 241.4081
0191 1416341552 240.8111
0192 1416345947 240.7855
0193 1416350341 239.5258
0194 1416354736 240.3050
0195 1416359130 238.6069
0196 1416363525 238.5630
0197 1416367919 239.6009
0198 1416372314 239.8459
0199 1416376708 239.0483
0200 1416381103 239.0431
0201 1416385498 238.9091
0202 1416389892 239.0040
0203 1416394287 239.5200
0204 1416398681 239.8340
0205 1416403076 240.6361
0206 1416407470 239.4489
0207 1416411865 240.7512
0208 1416416259 240.6388
0209 1416420654 239.8291
0210 1416425048 240.6264
0211 1416429443 241.2513
0212 1416433837 239.7982
0213 1416438232 241.1607
0214 1416442626 241.6410
0215 1416447021 240.6364
0216 1416451416 240.6291
0217 1416455810 240.7169
0218 1416460205 240.5892
0219 1416464599 241.2059
0220 1416468994 240.7321
0221 1416473388 240.1728
0222 1416477783 241.1467
0223 1416482177 240.6471
0224 1416486572 240.7505
0225 1416490966 239.9112
0226 1416495361 240.2439
0227 1416499755 240.8346
0228 1416504150 240.6434
0229 1416508544 240.8519
0230 1416512939 241.6148
0231 1416517333 242.2540
0232 1416521728 242.5480
0233 1416526123 243.5932
0234 1416530517 243.8012
0235 1416534912 245.9148
0236 1416539306 246.7347
0237 1416543701 247.2902
0238 1416548095 248.5170
0239 1416552490 250.8722
0240 1416556884 250.4660
0241 1416561279 251.3969
0242 1416565673 251.3962
0243 1416570068 252.7583
0244 1416574462 253.6577
0245 1416578857 254.5512
0246 1416583251 254.7384
0247 1416587646 252.9154
0248 1416592041 253.0340
0249 1416596435 252.9135
0250 1416600830 252.8905
0251 1416605224 251.6672
0252 1416609619 250.4593
0253 1416614013 249.8034
0254 1416618408 249.1250
0255 1416622802 247.7822
0256 1416627197 246.9176
0257 1416631591 246.6587
0258 1416635986 245.1139
0259 1416640380 244.6852
0260 1416644775 243.3692
0261 1416649169 242.9443
0262 1416653564 242.7213
0263 1416657958 243.0979
0264 1416662353 241.9821
0265 1416666748 241.0502
0266 1416671142 240.7466
0267 1416675537 240.3893
0268 1416679931 239.2932
0269 1416684326 238.8096
0270 1416688720 236.1622
0271 1416693115 236.2915
0272 1416697509 235.8354
0273 1416701904 235.2315
0274 1416706298 234.1594
0275 1416710693 234.0077
0276 1416715087 232.9600
0277 1416719482 234.3746
0278 1416723876 233.4973
0279 1416728271 233.8259
0280 1416732666 232.6791
0281 1416737060 231.6166
0282 1416741455 232.4412
0283 1416745849 233.0342
0284 1416750244 232.3031
0285 1416754638 231.9605
0286 1416759033 232.2854
0287 1416763427 231.6824
0288 1416767822 232.5745
0289 1416772216 231.9698
0290 1416776611 232.7355
0291 1416781005 231.6031
0292 1416785400 232.7860
0293 1416789794 231.9971
0294 1416794189 232.0854
0295 1416798583 232.6435
0296 1416802978 232.6739
0297 1416807373 233.0229
0298 1416811767 233.6966
0299 1416816162 233.4023
0300 1416820556 233.9951
0301 1416824951 234.6005
0302 1416829345 234.4879
0303 1416833740 234.2348
0304 1416838134 234.7280
0305 1416842529 234.8002
0306 1416846923 235.6474
0307 1416851318 235.1489
0308 1416855712 234.4219
0309 1416860107 235.1687
0310 1416864501 236.4415
0311 1416868896 236.6044
0312 1416873291 236.4073
0313 1416877685 236.4567
0314 1416882080 237.0629
0315 1416886474 237.2849
0316 1416890869 236.6688
0317 1416895263 236.1044
0318 1416899658 236.4612
0319 1416904052 237.5264
0320 1416908447 237.6358
0321 1416912841 237.9745
0322 1416917236 238.5364
0323 1416921630 238.1914
0324 1416926025 239.3044
0325 1416930419 238.5538
0326 1416934814 239.2861
0327 1416939208 239.9087
0328 1416943603 238.9899
0329 1416947998 238.6311
0330 1416952392 239.2150
0331 1416956787 240.1329
0332 1416961181 239.5410
0333 1416965576 240.2747
0334 1416969970 240.7239
0335 1416974365 240.9323
0336 1416978759 239.4836
0337 1416983154 240.1608
0338 1416987548 240.1890
0339 1416991943 240.1152
0340 1416996337 240.8937
0341 1417000732 239.5892
0342 1417005126 240.2520
0343 1417009521 240.3922
0344 1417013916 239.6215
0345 1417018310 239.7550
0346 1417022705 240.0413
0347 1417027099 240.8191
0348 1417031494 239.3627
0349 1417035888 238.6176
0350 1417040283 239.2608
0351 1417044677 238.4799
0352 1417049072 239.6298
0353 1417053466 238.9443
0354 1417057861 238.7738
0355 1417062255 239.0424
0356 1417066650 239.3434
0357 1417071044 238.7160
0358 1417075439 239.7956
0359 1417079833 239.0040
0360 1417084228 239.8037
0361 1417088623 239.7907
0362 1417093017 238.8620
0363 1417097412 238.9352
0364 1417101806 239.5259
0365 1417106201 238.9926
0366 1417110595 238.9923
0367 1417114990 238.8408
0368 1417119384 238.4263
0369 1417123779 238.3531
0370 1417128173 238.0012
0371 1417132568 238.3611
0372 1417136962 239.1122
0373 1417141357 239.0588
0374 1417145751 238.6746
0375 1417150146 239.9995
0376 1417154541 239.4193
0377 1417158935 239.7746
0378 1417163330 239.3195
0379 1417167724 239.5215
0380 1417172119 239.9024
0381 1417176513 240.8985
0382 1417180908 238.7170
0383 1417185302 239.9733
0384 1417189697 240.6277
0385 1417194091 240.1461
0386 1417198486 240.2187
0387 1417202880 239.2998
0388 1417207275 238.9958
0389 1417211669 239.9591
0390 1417216064 240.2725
0391 1417220458 239.5219
0392 1417224853 238.6350
0393 1417229248 239.9934
0394 1417233642 240.8507
0395 1417238037 240.4497
0396 1417242431 240.6388
0397 1417246826 240.8621
0398 1417251220 240.3632
0399 1417255615 241.4410
0400 1417260009 240.6653
0401 1417264404 241.6354
0402 1417268798 242.1945
0403 1417273193 242.4033
0404 1417277587 241.6189
0405 1417281982 242.5802
0406 1417286376 242.2389
0407 1417290771 242.6123
0408 1417295166 242.0825
0409 1417299560 242.3968
0410 1417303955 243.2654
0411 1417308349 242.8418
0412 1417312744 242.7859
0413 1417317138 243.9201
0414 1417321533 244.1498
0415 1417325927 243.0261
0416 1417330322 243.8491
0417 1417334716 243.5748
0418 1417339111 243.7631
0419 1417343505 243.3778
0420 1417347900 243.4452
0421 1417352294 243.6657
0422 1417356689 243.5664
0423 1417361083 243.2550
0424 1417365478 243.8109
0425 1417369873 243.9373
0426 1417374267 243.4702
0427 1417378662 243.9856
0428 1417383056 243.6512
0429 1417387451 243.1996
0430 1417391845 243.9592
0431 1417396240 243.6270
0432 1417400634 242.5327
0433 1417405029 243.4085
0434 1417409423 243.0156
0435 1417413818 242.7690
0436 1417418212 243.7574
0437 1417422607 243.8182
0438 1417427001 243.6794
0439 1417431396 242.6777
0440 1417435791 242.8649
0441 1417440185 244.2916
0442 1417444580 243.2920
0443 1417448974 242.8800
0444 1417453369 243.0355
0445 1417457763 242.7587
0446 1417462158 242.0887
0447 1417466552 243.1666
0448 1417470947 244.1078
0449 1417475341 243.5314
0450 1417479736 242.4816
0451 1417484130 242.5400
0452 1417488525 242.4325
0453 1417492919 243.2042
0454 1417497314 243.0558
0455 1417501708 243.1304
0456 1417506103 242.1443
0457 1417510498 242.8224
0458 1417514892 242.7085
0459 1417519287 242.1791
0460 1417523681 241.6280
0461 1417528076 241.0060
0462 1417532470 242.1313
0463 1417536865 241.2986
0464 1417541259 241.0408
0465 1417545654 242.2509
0466 1417550048 241.2893
0467 1417554443 241.0422
0468 1417558837 242.1795
0469 1417563232 241.7508
0470 1417567626 241.7685
0471 1417572021 240.9895
0472 1417576416 241.2220
0473 1417580810 242.4358
0474 1417585205 241.7877
0475 1417589599 240.7410
0476 1417593994 241.8294
0477 1417598388 240.8056
0478 1417602783 241.2297
0479 1417607177 240.9893
0480 1417611572 241.3426
0481 1417615966 241.8246
0482 1417620361 241.2785
0483 1417624755 241.0887
0484 1417629150 241.9198
0485 1417633544 241.6091
0486 1417637939 241.8354
0487 1417642333 241.4155
0488 1417646728 242.0981
0489 1417651123 242.4896
0490 1417655517 243.1107
0491 1417659912 241.8889
0492 1417664306 241.6295
0493 1417668701 241.7836
0494 1417673095 242.2687
0495 1417677490 242.9762
0496 1417681884 242.2418
0497 1417686279 241.3703
0498 1417690673 242.1522
0499 1417695068 242.3719
0500 1417699462 243.7036
0501 1417703857 242.9556
0502 1417708251 242.6151
0503 1417712646 243.5243
0504 1417717041 243.8542
0505 1417721435 242.7416
0506 1417725830 242.0067
0507 1417730224 243.1561
0508 1417734619 244.1923
0509 1417739013 244.7595
0510 1417743408 244.0893
0511 1417747802 245.5404
0512 1417752197 245.2019
0513 1417756591 244.1734
0514 1417760986 244.6859
0515 1417765380 244.2999
0516 1417769775 245.1098
0517 1417774169 245.2949
0518 1417778564 244.9036
0519 1417782958 245.8595
0520 1417787353 245.5966
0521 1417791748 247.1695
0522 1417796142 246.9316
0523 1417800537 245.9408
0524 1417804931 247.0652
0525 1417809326 246.0179
0526 1417813720 246.1530
0527 1417818115 246.6194
0528 1417822509 247.1969
0529 1417826904 248.3039
0530 1417831298 248.5889
0531 1417835693 247.2656
0532 1417840087 247.5734
0533 1417844482 247.5596
0534 1417848876 247.9516
0535 1417853271 248.2653
0536 1417857666 248.7218
0537 1417862060 249.0317
0538 1417866455 248.9057
0539 1417870849 249.5388
0540 1417875244 250.3917
0541 1417879638 250.3414
0542 1417884033 249.3727
0543 1417888427 250.5687
0544 1417892822 250.6026
0545 1417897216 250.2474
0546 1417901611 249.8426
0547 1417906005 250.3969
0548 1417910400 250.2631
0549 1417914794 250.7559
0550 1417919189 250.1230
0551 1417923583 250.7403
0552 1417927978 250.2507
0553 1417932373 251.7128
0554 1417936767 251.4062
0555 1417941162 251.4615
0556 1417945556 251.5427
0557 1417949951 251.7453
0558 1417954345 250.3282
0559 1417958740 251.8505
0560 1417963134 251.0553
0561 1417967529 250.9778
0562 1417971923 251.8090
0563 1417976318 250.9040
0564 1417980712 251.1278
0565 1417985107 251.3821
0566 1417989501 252.1447
0567 1417993896 251.4991
0568 1417998291 251.1201
0569 1418002685 251.3986
0570 1418007080 251.7844
0571 1418011474 250.7460
0572 1418015869 251.0775
0573 1418020263 250.9724
0574 1418024658 250.7574
0575 1418029052 252.2659
0576 1418033447 251.5560
0577 1418037841 252.0447
0578 1418042236 252.3345
0579 1418046630 250.4577
0580 1418051025 251.7282
0581 1418055419 251.8236
0582 1418059814 250.7214
0583 1418064208 251.0424
0584 1418068603 251.0297
0585 1418072998 251.6557
0586 1418077392 251.0744
0587 1418081787 251.0948
0588 1418086181 251.2016
0589 1418090576 251.2602
0590 1418094970 250.1994
0591 1418099365 251.4911
0592 1418103759 251.2438
0593 1418108154 249.6180
0594 1418112548 250.3728
0595 1418116943 250.1325
0596 1418121337 250.9143
0597 1418125732 250.4285
0598 1418130126 250.0101
0599 1418134521 249.6035
0600 1418138916 248.9739
0601 1418143310 249.7256
0602 1418147705 249.2471
0603 1418152099 249.6681
0604 1418156494 249.6215
0605 1418160888 249.7761
0606 1418165283 249.9625
0607 1418169677 250.5775
0608 1418174072 248.7888
0609 1418178466 249.0359
0610 1418182861 250.0381
0611 1418187255 249.3510
0612 1418191650 249.8357
0613 1418196044 250.1845
0614 1418200439 249.9252
0615 1418204833 249.3550
0616 1418209228 249.4449
0617 1418213623 249.5350
0618 1418218017 249.8456
0619 1418222412 250.4695
0620 1418226806 249.2244
0621 1418231201 249.5525
0622 1418235595 249.6889
0623 1418239990 250.1538
0624 1418244384 249.8696
0625 1418248779 249.0708
0626 1418253173 249.3125
0627 1418257568 249.4484
0628 1418261962 250.1758
0629 1418266357 250.1076
0630 1418270751 251.0293
0631 1418275146 251.1203
0632 1418279541 250.2802
0633 1418283935 250.2395
0634 1418288330 250.6895
0635 1418292724 250.2112
0636 1418297119 250.6518
0637 1418301513 250.3712
0638 1418305908 250.8764
0639 1418310302 251.5533
0640 1418314697 250.4031
0641 1418319091 251.0703
0642 1418323486 251.6236
0643 1418327880 251.2719
0644 1418332275 250.4743
0645 1418336669 251.3952
0646 1418341064 251.4423
0647 1418345458 250.7009
0648 1418349853 251.1886
0649 1418354248 251.9292
0650 1418358642 251.9880
0651 1418363037 251.5973
0652 1418367431 252.1408
0653 1418371826 252.1374
0654 1418376220 251.8662
0655 1418380615 251.9204
0656 1418385009 253.0715
0657 1418389404 252.4389
0658 1418393798 252.2834
0659 1418398193 252.0032
0660 1418402587 252.4328
0661 1418406982 252.7727
0662 1418411376 253.4108
0663 1418415771 252.6306
0664 1418420166 252.7867
0665 1418424560 253.0940
0666 1418428955 253.0380
0667 1418433349 253.2841
0668 1418437744 254.5829
0669 1418442138 253.6094
0670 1418446533 253.8066
0671 1418450927 253.6881
0672 1418455322 254.1350
0673 1418459716 253.4919
0674 1418464111 252.8104
0675 1418468505 253.5632
0676 1418472900 252.9516
0677 1418477294 253.3104
0678 1418481689 253.8143
0679 1418486083 253.2561
0680 1418490478 254.0656
0681 1418494873 254.3040
0682 1418499267 253.2499
0683 1418503662 253.7833
0684 1418508056 254.7133
0685 1418512451 254.2194
0686 1418516845 253.9375
0687 1418521240 254.0805
0688 1418525634 254.2021
0689 1418530029 254.3124
0690 1418534423 253.9895
0691 1418538818 253.5737
0692 1418543212 253.1452
0693 1418547607 254.3241
0694 1418552001 253.7940
0695 1418556396 254.1662
0696 1418560791 254.0409
0697 1418565185 253.4846
0698 1418569580 253.1159
0699 1418573974 253.2313
0700 1418578369 253.2604
0701 1418582763 253.4363
0702 1418587158 252.8570
0703 1418591552 252.8677
0704 1418595947 252.5802
0705 1418600341 251.7089
0706 1418604736 252.3616
0707 1418609130 253.2786
0708 1418613525 251.9963
0709 1418617919 252.4304
0710 1418622314 252.3666
0711 1418626708 252.3311
0712 1418631103 252.4328
0713 1418635498 252.2506
0714 1418639892 252.2563
0715 1418644287 252.5756
0716 1418648681 251.7209
0717 1418653076 252.5681
0718 1418657470 252.3264
0719 1418661865 252.1181
0720 1418666259 251.9524
0721 1418670654 253.0125
0722 1418675048 252.3375
0723 1418679443 251.4909
0724 1418683837 251.3584
0725 1418688232 252.4047
0726 1418692626 250.7791
0727 1418697021 251.0898
0728 1418701416 252.6638
0729 1418705810 251.4173
0730 1418710205 251.9236
0731 1418714599 252.9372
0732 1418718994 252.8005
0733 1418723388 251.9856
0734 1418727783 252.1530
0735 1418732177 251.4054
0736 1418736572 252.4529
0737 1418740966 252.0532
0738 1418745361 252.0458
0739 1418749755 252.1264
0740 1418754150 251.7107
0741 1418758544 252.2610
0742 1418762939 251.7348
0743 1418767333 251.8309
0744 1418771728 252.9770
0745 1418776123 252.6033
0746 1418780517 253.9104
0747 1418784912 253.8153
0748 1418789306 253.1058
0749 1418793701 254.2505
0750 1418798095 254.7548
0751 1418802490 254.1021
0752 1418806884 254.3609
0753 1418811279 253.9367
0754 1418815673 254.7781
0755 1418820068 254.8767
0756 1418824462 255.7140
0757 1418828857 255.6624
0758 1418833251 256.5031
0759 1418837646 255.9760
0760 1418842041 255.1335
0761 1418846435 257.1091
0762 1418850830 256.1267
0763 1418855224 256.6260
0764 1418859619 257.2134
0765 1418864013 257.8493
0766 1418868408 258.6311
0767 1418872802 258.3386
0768 1418877197 258.9491
0769 1418881591 258.7320
0770 1418885986 259.2570
0771 1418890380 258.7059
0772 1418894775 260.4553
0773 1418899169 259.6038
0774 1418903564 261.3965
0775 1418907958 260.4807
0776 1418912353 260.7414
0777 1418916748 261.1822
0778 1418921142 262.2221
0779 1418925537 262.1866
0780 1418929931 262.9895
0781 1418934326 263.0857
0782 1418938720 263.4604
0783 1418943115 264.0530
0784 1418947509 264.2237
0785 1418951904 265.7871
0786 1418956298 265.6069
0787 1418960693 265.4802
0788 1418965087 265.3361
0789 1418969482 265.0458
0790 1418973876 265.1751
0791 1418978271 266.3336
0792 1418982666 266.1838
0793 1418987060 266.7282
0794 1418991455 266.0247
0795 1418995849 267.4941
0796 1419000244 267.5317
0797 1419004638 267.9357
0798 1419009033 268.8369
0799 1419013427 268.2150
0800 1419017822 268.0457
0801 1419022216 268.5379
0802 1419026611 269.6691
0803 1419031005 270.6226
0804 1419035400 269.1712
0805 1419039794 267.8294
0806 1419044189 269.1241
0807 1419048583 270.0433
0808 1419052978 269.4626
0809 1419057373 270.2226
0810 1419061767 269.9476
0811 1419066162 270.3467
0812 1419070556 270.9715
0813 1419074951 270.8067
0814 1419079345 272.0367
0815 1419083740 270.4395
0816 1419088134 271.7805
0817 1419092529 272.1400
0818 1419096923 271.3823
0819 1419101318 270.9439
0820 1419105712 272.2671
0821 1419110107 271.4821
0822 1419114501 271.5920
0823 1419118896 271.9064
0824 1419123291 271.2628
0825 1419127685 272.4240
0826 1419132080 271.4517
0827 1419136474 270.5259
0828 1419140869 271.4688
0829 1419145263 271.0459
0830 1419149658 270.5899
0831 1419154052 271.5696
0832 1419158447 271.4138
0833 1419162841 270.8942
0834 1419167236 270.6307
0835 1419171630 271.1206
0836 1419176025 270.5731
0837 1419180419 269.5106
0838 1419184814 269.0565
0839 1419189208 269.8492
0840 1419193603 270.1233
0841 1419197998 269.3983
0842 1419202392 269.8455
0843 1419206787 269.2105
0844 1419211181 269.0674
0845 1419215576 268.9956
0846 1419219970 268.2222
0847 1419224365 268.5479
0848 1419228759 268.9079
0849 1419233154 267.6180
0850 1419237548 267.7077
0851 1419241943 267.8168
0852 1419246337 268.0963
0853 1419250732 267.4918
0854 1419255126 268.0886
0855 1419259521 267.6832
0856 1419263916 267.7208
0857 1419268310 266.8863
0858 1419272705 266.7625
0859 1419277099 267.7208
0860 1419281494 267.2484
0861 1419285888 266.8113
0862 1419290283 266.8879
0863 1419294677 266.0103
0864 1419299072 266.1631
0865 1419303466 266.5957
0866 1419307861 266.2366
0867 1419312255 266.8448
0868 1419316650 265.4034
0869 1419321044 265.5723
0870 1419325439 265.9008
0871 1419329833 265.6741
0872 1419334228 266.0607
0873 1419338623 265.5961
0874 1419343017 265.3401
0875 1419347412 266.3641
0876 1419351806 265.4506
0877 1419356201 266.3932
0878 1419360595 266.6226
0879 1419364990 266.3807
0880 1419369384 265.6527
0881 1419373779 266.1843
0882 1419378173 267.5969
0883 1419382568 265.6821
0884 1419386962 266.7191
0885 1419391357 266.7781
0886 1419395751 266.7103
0887 1419400146 266.9699
0888 1419404541 267.7696
0889 1419408935 269.0526
0890 1419413330 268.0229
0891 1419417724 267.2157
0892 1419422119 268.5399
0893 1419426513 269.7519
0894 1419430908 267.9051
0895 1419435302 268.6726
0896 1419439697 269.2959
0897 1419444091 270.6367
0898 1419448486 271.2161
0899 1419452880 270.1017
0900 1419457275 271.5720
0901 1419461669 271.3244
0902 1419466064 271.4354
0903 1419470458 272.6636
0904 1419474853 272.4535
0905 1419479248 272.8144
0906 1419483642 273.4481
0907 1419488037 274.6043
0908 1419492431 274.7052
0909 1419496826 275.1982
0910 1419501220 274.9604
0911 1419505615 276.1927
0912 1419510009 276.5674
0913 1419514404 276.3034
0914 1419518798 276.7805
0915 1419523193 277.6447
0916 1419527587 278.3931
0917 1419531982 278.5483
0918 1419536376 278.5351
0919 1419540771 279.1129
0920 1419545166 281.0146
0921 1419549560 281.3716
0922 1419553955 279.9361
0923 1419558349 280.1581
0924 1419562744 281.1275
0925 1419567138 281.3614
0926 1419571533 282.1636
0927 1419575927 284.1910
0928 1419580322 283.0163
0929 1419584716 283.5436
0930 1419589111 283.5793
0931 1419593505 283.9497
0932 1419597900 285.6989
0933 1419602294 285.6312
0934 1419606689 285.4050
0935 1419611083 286.2243
0936 1419615478 285.5080
0937 1419619873 286.2927
0938 1419624267 286.8835
0939 1419628662 286.3501
0940 1419633056 286.5132
0941 1419637451 288.7969
0942 1419641845 287.3419
0943 1419646240 288.7090
0944 1419650634 288.4805
0945 1419655029 289.6848
0946 1419659423 289.0017
0947 1419663818 290.5680
0948 1419668212 291.0521
0949 1419672607 290.1351
0950 1419677001 290.5794
0951 1419681396 290.2842
0952 1419685791 288.8854
0953 1419690185 290.5440
0954 1419694580 290.8229
0955 1419698974 292.0148
0956 1419703369 291.5183
0957 1419707763 291.2979
0958 1419712158 291.0591
0959 1419716552 291.1661
0960 1419720947 292.3184
0961 1419725341 290.6963
0962 1419729736 290.4314
0963 1419734130 291.1768
0964 1419738525 290.1595
0965 1419742919 290.7999
0966 1419747314 290.7974
0967 1419751708 289.8593
0968 1419756103 291.4796
0969 1419760498 291.2300
0970 1419764892 291.2959
0971 1419769287 291.2676
0972 1419773681 291.2375
0973 1419778076 289.8767
0974 1419782470 288.8978
0975 1419786865 289.0220
0976 1419791259 289.4287
0977 1419795654 289.8845
0978 1419800048 289.8534
0979 1419804443 289.1167
0980 1419808837 288.8323
0981 1419813232 288.6841
0982 1419817626 288.5972
0983 1419822021 288.7981
0984 1419826416 287.9089
0985 1419830810 287.7273
0986 1419835205 288.1000
0987 1419839599 287.6780
0988 1419843994 287.2553
0989 1419848388 286.4855
0990 1419852783 287.7791
0991 1419857177 286.4616
0992 1419861572 286.2773
0993 1419865966 286.2701
0994 1419870361 286.3064
0995 1419874755 285.3108
0996 1419879150 284.5609
0997 1419883544 285.0157
0998 1419887939 284.8983
0999 1419892333 284.0749
1000 1419896728 284.2795
1001 1419901123 283.3218
1002 1419905517 283.3842
1003 1419909912 284.0450
1004 1419914306 284.2609
1005 1419918701 282.7748
1006 1419923095 283.4970
1007 1419927490 282.2867
1008 1419931884 282.2464
1009 1419936279 283.8984
1010 1419940673 282.4944
1011 1419945068 282.4068
1012 1419949462 282.6021
1013 1419953857 282.0111
1014 1419958251 282.7148
1015 1419962646 283.4628
1016 1419967041 282.7393
1017 1419971435 283.4279
1018 1419975830 282.7957
1019 1419980224 280.8927
1020 1419984619 282.8728
1021 1419989013 283.2262
1022 1419993408 282.3717
1023 1419997802 282.7911
1024 1420002197 284.2968
1025 1420006591 283.5699
1026 1420010986 282.6132
1027 1420015380 283.0596
1028 1420019775 282.5239
1029 1420024169 283.7442
1030 1420028564 283.5804
1031 1420032958 282.7433
1032 1420037353 283.6174
1033 1420041748 284.7279
1034 1420046142 285.5067
1035 1420050537 284.8773
1036 1420054931 285.4204
1037 1420059326 284.8853
1038 1420063720 286.2826
1039 1420068115 286.1651
1040 1420072509 285.9379
1041 1420076904 287.0478
1042 1420081298 287.1631
1043 1420085693 287.4568
1044 1420090087 287.6417
1045 1420094482 287.3956
1046 1420098876 287.2935
1047 1420103271 286.6831
1048 1420107666 289.2361
1049 1420112060 289.6330
1050 1420116455 289.6165
1051 1420120849 290.8033
1052 1420125244 290.8042
1053 1420129638 291.8359
1054 1420134033 291.3489
1055 1420138427 291.0409
1056 1420142822 292.1627
1057 1420147216 293.0772
1058 1420151611 293.0646
1059 1420156005 293.9434
1060 1420160400 293.4938
1061 1420164794 293.4341
1062 1420169189 294.9326
1063 1420173583 295.4630
1064 1420177978 295.9832
1065 1420182373 295.7810
1066 1420186767 296.4376
1067 1420191162 296.7703
1068 1420195556 298.7413
1069 1420199951 298.7826
1070 1420204345 297.5626
1071 1420208740 300.0257
1072 1420213134 299.1930
1073 1420217529 299.2303
1074 1420221923 299.4629
1075 1420226318 300.9457
1076 1420230712 301.3866
1077 1420235107 301.1233
1078 1420239501 299.8208
1079 1420243896 300.8067
1080 1420248291 301.9725
1081 1420252685 301.5043
1082 1420257080 302.2122
1083 1420261474 301.9051
1084 1420265869 303.1967
1085 1420270263 302.7075
1086 1420274658 303.6265
1087 1420279052 304.2126
1088 1420283447 304.0525
1089 1420287841 304.4423
1090 1420292236 303.9460
1091 1420296630 306.4548
1092 1420301025 305.4008
1093 1420305419 305.6307
1094 1420309814 305.6004
1095 1420314208 306.3451
1096 1420318603 306.5217
1097 1420322998 307.5432
1098 1420327392 306.2805
1099 1420331787 305.5701
1100 1420336181 306.0453
1101 1420340576 306.4205
1102 1420344970 305.7180
1103 1420349365 306.9092
1104 1420353759 305.6873
1105 1420358154 305.5369
1106 1420362548 305.9622
1107 1420366943 305.9409
1108 1420371337 307.0138
1109 1420375732 305.5217
1110 1420380126 304.5492
1111 1420384521 304.5076
1112 1420388916 305.6824
1113 1420393310 304.9424
1114 1420397705 305.5482
1115 1420402099 304.4795
1116 1420406494 302.3157
1117 1420410888 303.4745
1118 1420415283 303.7863
1119 1420419677 303.2040
1120 1420424072 303.3499
1121 1420428466 301.7666
1122 1420432861 301.6640
1123 1420437255 301.6711
1124 1420441650 301.1745
1125 1420446044 300.5656
1126 1420450439 300.7104
1127 1420454833 300.7838
1128 1420459228 300.9993
1129 1420463623 299.5974
1130 1420468017 299.5432
1131 1420472412 298.3713
1132 1420476806 299.4454
1133 1420481201 298.5464
1134 1420485595 299.0803
1135 1420489990 297.9247
1136 1420494384 298.0216
1137 1420498779 298.0943
1138 1420503173 297.5463
1139 1420507568 296.2813
1140 1420511962 296.4802
1141 1420516357 296.1897
1142 1420520751 297.0400
1143 1420525146 295.7602
1144 1420529541 295.9804
1145 1420533935 295.4266
1146 1420538330 295.5663
1147 1420542724 294.2701
1148 1420547119 296.4129
1149 1420551513 294.0886
1150 1420555908 294.5952
1151 1420560302 293.7234
1152 1420564697 294.5792
1153 1420569091 294.3259
1154 1420573486 293.3270
1155 1420577880 292.0567
1156 1420582275 293.7683
1157 1420586669 293.5225
1158 1420591064 292.1551
1159 1420595458 294.0692
1160 1420599853 293.0081
1161 1420604248 292.8341
1162 1420608642 293.0194
1163 1420613037 291.8125
1164 1420617431 293.0292
1165 1420621826 290.6975
1166 1420626220 292.5134
1167 1420630615 292.8394
1168 1420635009 292.6575
1169 1420639404 292.6973
1170 1420643798 291.6345
1171 1420648193 292.4242
1172 1420652587 293.4013
1173 1420656982 292.9977
1174 1420661376 291.9577
1175 1420665771 293.0729
1176 1420670166 293.1447
1177 1420674560 293.3740
1178 1420678955 292.9261
1179 1420683349 292.9679
1180 1420687744 294.6288
1181 1420692138 294.1011
1182 1420696533 294.6262
1183 1420700927 293.5440
1184 1420705322 294.0084
1185 1420709716 294.6757
1186 1420714111 294.6333
1187 1420718505 296.5014
1188 1420722900 296.4522
1189 1420727294 296.8806
1190 1420731689 295.5066
1191 1420736083 296.3411
1192 1420740478 297.7592
1193 1420744873 297.2159
1194 1420749267 296.1689
1195 1420753662 297.2433
1196 1420758056 298.3391
1197 1420762451 299.3981
1198 1420766845 299.2629
1199 1420771240 298.2383
1200 1420775634 299.4622
1201 1420780029 300.5375
1202 1420784423 300.7278
1203 1420788818 300.9535
1204 1420793212 300.1646
1205 1420797607 300.9124
1206 1420802001 301.3715
1207 1420806396 302.1604
1208 1420810791 301.5132
1209 1420815185 303.6992
1210 1420819580 303.0623
1211 1420823974 302.9041
1212 1420828369 303.5104
1213 1420832763 304.3593
1214 1420837158 304.4989
1215 1420841552 304.3406
1216 1420845947 304.2544
1217 1420850341 304.9024
1218 1420854736 305.7349
1219 1420859130 306.4680
1220 1420863525 305.1415
1221 1420867919 306.9980
1222 1420872314 306.9604
1223 1420876708 306.6316
1224 1420881103 307.7519
1225 1420885498 307.0790
1226 1420889892 307.2009
1227 1420894287 308.3936
1228 1420898681 307.6730
1229 1420903076 307.1341
1230 1420907470 306.2645
1231 1420911865 306.4081
1232 1420916259 307.3320
1233 1420920654 307.7639
1234 1420925048 307.5588
1235 1420929443 308.4766
1236 1420933837 308.4293
1237 1420938232 307.9856
1238 1420942626 308.0001
1239 1420947021 307.8191
1240 1420951416 308.4305
1241 1420955810 310.0623
1242 1420960205 309.3675
1243 1420964599 308.8618
1244 1420968994 308.9970
1245 1420973388 308.4677
1246 1420977783 307.4008
1247 1420982177 306.6848
1248 1420986572 308.3651
1249 1420990966 307.7949
1250 1420995361 308.2550
1251 1420999755 307.4159
1252 1421004150 307.7302
1253 1421008544 307.6782
1254 1421012939 306.4600
1255 1421017333 307.5847
1256 1421021728 306.8105
1257 1421026123 307.8340
1258 1421030517 306.7259
1259 1421034912 305.9367
1260 1421039306 306.5141
1261 1421043701 306.2150
1262 1421048095 307.4424
1263 1421052490 305.5062
1264 1421056884 305.0247
1265 1421061279 304.8021
1266 1421065673 305.7936
1267 1421070068 305.2695
1268 1421074462 304.8446
1269 1421078857 304.1201
1270 1421083251 304.7831
1271 1421087646 302.7283
1272 1421092041 304.0339
1273 1421096435 303.6082
1274 1421100830 302.6707
1275 1421105224 303.9992
1276 1421109619 304.1312
1277 1421114013 302.3793
1278 1421118408 303.1883
1279 1421122802 301.6394
1280 1421127197 300.5516
1281 1421131591 300.7020
1282 1421135986 300.7193
1283 1421140380 301.3398
1284 1421144775 300.0834
1285 1421149169 300.4090
1286 1421153564 300.8516
1287 1421157958 300.4941
1288 1421162353 301.3279
1289 1421166748 300.1977
1290 1421171142 299.6900
1291 1421175537 299.4410
1292 1421179931 299.8922
1293 1421184326 299.1006
1294 1421188720 299.7726
1295 1421193115 299.2270
1296 1421197509 299.4987
1297 1421201904 299.9366
1298 1421206298 299.2688
1299 1421210693 299.6833
1300 1421215087 299.8279
1301 1421219482 300.1838
1302 1421223876 299.8599
1303 1421228271 301.1006
1304 1421232666 299.9784
1305 1421237060 298.6894
1306 1421241455 298.7806
1307 1421245849 299.2426
1308 1421250244 300.0020
1309 1421254638 300.2344
1310 1421259033 300.8651
1311 1421263427 300.0747
1312 1421267822 301.8007
1313 1421272216 300.2177
1314 1421276611 299.8899
1315 1421281005 299.4172
1316 1421285400 299.5219
1317 1421289794 300.3476
1318 1421294189 302.1680
1319 1421298583 301.6368
1320 1421302978 300.7510
1321 1421307373 301.0999
1322 1421311767 301.1841
1323 1421316162 302.0948
1324 1421320556 302.0152
1325 1421324951 301.5150
1326 1421329345 302.3376
1327 1421333740 302.3380
1328 1421338134 302.5184
1329 1421342529 302.7621
1330 1421346923 303.5043
1331 1421351318 302.4801
1332 1421355712 304.7119
1333 1421360107 304.1043
1334 1421364501 303.7991
1335 1421368896 303.6030
1336 1421373291 303.4352
1337 1421377685 305.1967
1338 1421382080 305.3361
1339 1421386474 304.8341
1340 1421390869 306.1913
1341 1421395263 305.8779
1342 1421399658 305.3457
1343 1421404052 305.9365
1344 1421408447 305.8369
1345 1421412841 307.7169
1346 1421417236 307.9804
1347 1421421630 307.9104
1348 1421426025 308.4509
1349 1421430419 308.3239
1350 1421434814 309.9200
1351 1421439208 309.6086
1352 1421443603 309.3648
1353 1421447998 310.0446
1354 1421452392 309.6093
1355 1421456787 310.0798
1356 1421461181 308.6508
1357 1421465576 309.9036
1358 1421469970 309.7722
1359 1421474365 310.1184
1360 1421478759 310.2470
1361 1421483154 311.1391
1362 1421487548 311.4647
1363 1421491943 311.2276
1364 1421496337 312.0333
1365 1421500732 313.2292
1366 1421505126 312.0015
1367 1421509521 311.8690
1368 1421513916 311.5238
1369 1421518310 310.9558
1370 1421522705 313.2000
1371 1421527099 312.5881
1372 1421531494 313.5411
1373 1421535888 313.7201
1374 1421540283 312.8780
1375 1421544677 314.1460
1376 1421549072 313.6470
1377 1421553466 314.0662
1378 1421557861 314.3920
1379 1421562255 312.4623
1380 1421566650 313.1748
1381 1421571044 313.0291
1382 1421575439 315.6161
1383 1421579833 314.2730
1384 1421584228 313.8251
1385 1421588623 315.1012
1386 1421593017 315.8013
1387 1421597412 314.5787
1388 1421601806 315.0641
1389 1421606201 313.4889
1390 1421610595 315.4253
1391 1421614990 315.8781
1392 1421619384 314.9534
1393 1421623779 315.2329
1394 1421628173 315.3774
1395 1421632568 314.6468
1396 1421636962 316.2278
1397 1421641357 317.2099
1398 1421645751 316.2027
1399 1421650146 315.2152
1400 1421654541 316.2447
1401 1421658935 315.6023
1402 1421663330 316.6336
1403 1421667724 316.1414
1404 1421672119 317.2630
1405 1421676513 316.0914
1406 1421680908 315.6423
1407 1421685302 314.9734
1408 1421689697 317.6715
1409 1421694091 316.4353
1410 1421698486 316.5363
1411 1421702880 316.4032
1412 1421707275 316.5758
1413 1421711669 315.9164
1414 1421716064 316.6197
1415 1421720458 317.4450
1416 1421724853 318.1425
1417 1421729248 317.4189
1418 1421733642 317.3425
1419 1421738037 317.6689
1420 1421742431 317.1691
1421 1421746826 317.5417
1422 1421751220 317.8138
1423 1421755615 317.2135
1424 1421760009 317.6449
1425 1421764404 319.6449
1426 1421768798 318.1790
1427 1421773193 317.9224
1428 1421777587 318.6620
1429 1421781982 321.1669
1430 1421786376 319.8615
1431 1421790771 318.9485
1432 1421795166 320.2043
1433 1421799560 321.2390
1434 1421803955 318.9660
1435 1421808349 320.2189
1436 1421812744 320.7729
1437 1421817138 320.1482
1438 1421821533 321.9372
1439 1421825927 320.3846
1440 1421830322 321.3408
1441 1421834716 321.7529
1442 1421839111 321.7487
1443 1421843505 323.2888
1444 1421847900 322.0637
1445 1421852294 321.7440
1446 1421856689 323.6475
1447 1421861083 322.0037
1448 1421865478 324.0060
1449 1421869873 324.2266
1450 1421874267 322.2410
1451 1421878662 324.2569
1452 1421883056 323.4029
1453 1421887451 323.5678
1454 1421891845 324.8469
1455 1421896240 324.3049
1456 1421900634 325.1739
1457 1421905029 324.9701
1458 1421909423 325.9384
1459 1421913818 325.3763
1460 1421918212 327.0904
1461 1421922607 325.8780
1462 1421927001 326.6365
1463 1421931396 327.4855
1464 1421935791 328.2219
1465 1421940185 327.3259
1466 1421944580 327.9950
1467 1421948974 327.9087
1468 1421953369 329.2679
1469 1421957763 328.1329
1470 1421962158 329.6286
1471 1421966552 328.9766
1472 1421970947 329.9821
1473 1421975341 329.7452
1474 1421979736 330.3230
1475 1421984130 330.4933
1476 1421988525 330.6226
1477 1421992919 333.7142
1478 1421997314 333.5352
1479 1422001708 348.9793
1480 1422006103 336.7585
1481 1422010498 335.6640
1482 1422014892 331.1448
1483 1422019287 333.1909
1484 1422023681 331.9808
1485 1422028076 332.1381
1486 1422032470 331.3087
1487 1422036865 332.1076
1488 1422041259 331.3275
1489 1422045654 333.2202
1490 1422050048 332.4742
1491 1422054443 331.9103
1492 1422058837 333.4419
1493 1422063232 332.9385
1494 1422067626 333.4614
1495 1422072021 332.7045
1496 1422076416 332.4242
1497 1422080810 333.4536
1498 1422085205 334.3020
1499 1422089599 333.5231
1500 1422093994 333.7748
1501 1422098388 333.6931
1502 1422102783 331.5132
1503 1422107177 332.2944
1504 1422111572 331.3850
1505 1422115966 332.4870
1506 1422120361 332.6105
1507 1422124755 332.5019
1508 1422129150 332.2646
1509 1422133544 333.7058
1510 1422137939 333.6735
1511 1422142333 332.5066
1512 1422146728 332.3180
1513 1422151123 333.2413
1514 1422155517 332.8655
1515 1422159912 331.4011
1516 1422164306 332.3156
1517 1422168701 331.6659
1518 1422173095 332.5691
1519 1422177490 333.2145
1520 1422181884 333.0111
1521 1422186279 332.3595
1522 1422190673 332.3947
1523 1422195068 332.0245
1524 1422199462 332.9351
1525 1422203857 332.6746
1526 1422208251 331.8160
1527 1422212646 332.2948
1528 1422217041 331.7968
1529 1422221435 331.4049
1530 1422225830 332.0716
1531 1422230224 332.5685
1532 1422234619 332.1748
1533 1422239013 331.2666
1534 1422243408 330.2837
1535 1422247802 331.6816
1536 1422252197 330.9478
1537 1422256591 330.9910
1538 1422260986 331.1999
1539 1422265380 330.7716
1540 1422269775 331.9825
1541 1422274169 331.6102
1542 1422278564 330.9601
1543 1422282958 330.8087
1544 1422287353 330.6961
1545 1422291748 331.5777
1546 1422296142 331.4312
1547 1422300537 331.6836
1548 1422304931 331.1181
1549 1422309326 332.1131
1550 1422313720 331.0700
1551 1422318115 331.8064
1552 1422322509 332.5443
1553 1422326904 331.6141
1554 1422331298 331.6931
1555 1422335693 332.7047
1556 1422340087 332.2061
1557 1422344482 330.2809
1558 1422348876 331.6067
1559 1422353271 332.6531
1560 1422357666 331.2453
1561 1422362060 332.1408
1562 1422366455 331.1949
1563 1422370849 331.1960
1564 1422375244 333.1790
1565 1422379638 332.5584
1566 1422384033 332.0353
1567 1422388427 333.7039
1568 1422392822 333.2739
1569 1422397216 334.1209
1570 1422401611 334.1078
1571 1422406005 334.0251
1572 1422410400 333.5812
1573 1422414794 334.5046
1574 1422419189 334.9948
1575 1422423583 335.0089
1576 1422427978 335.8995
1577 1422432373 335.3170
1578 1422436767 335.2726
1579 1422441162 334.4996
1580 1422445556 334.6281
1581 1422449951 335.3576
1582 1422454345 336.7696
1583 1422458740 336.1756
1584 1422463134 337.1379
1585 1422467529 336.7633
1586 1422471923 338.2184
1587 1422476318 337.1084
1588 1422480712 336.7486
1589 1422485107 337.9479
1590 1422489501 338.0011
1591 1422493896 338.2902
1592 1422498291 338.7737
1593 1422502685 340.2277
1594 1422507080 338.1563
1595 1422511474 338.7445
1596 1422515869 338.8958
1597 1422520263 340.1396
1598 1422524658 341.7216
1599 1422529052 341.4629
1600 1422533447 342.9275
1601 1422537841 341.6411
1602 1422542236 341.2449
1603 1422546630 342.4392
1604 1422551025 341.8426
1605 1422555419 343.0327
1606 1422559814 344.0089
1607 1422564208 343.4022
1608 1422568603 344.5571
1609 1422572998 343.1718
1610 1422577392 342.0579
1611 1422581787 344.0500
1612 1422586181 344.0271
1613 1422590576 343.3418
1614 1422594970 343.9105
1615 1422599365 344.1718
1616 1422603759 343.1371
1617 1422608154 345.0575
1618 1422612548 345.9138
1619 1422616943 345.4109
1620 1422621337 345.8649
1621 1422625732 345.2027
1622 1422630126 345.2532
1623 1422634521 344.1348
1624 1422638916 345.6515
1625 1422643310 345.7585
1626 1422647705 346.4870
1627 1422652099 347.1411
1628 1422656494 345.7656
1629 1422660888 346.3522
1630 1422665283 347.0011
1631 1422669677 346.9691
1632 1422674072 346.9404
1633 1422678466 347.1424
1634 1422682861 346.2005
1635 1422687255 347.5033
1636 1422691650 346.2929
1637 1422696044 346.9613
1638 1422700439 347.1562
1639 1422704833 346.9762
1640 1422709228 348.0934
1641 1422713623 348.5705
1642 1422718017 346.8391
1643 1422722412 347.2068
1644 1422726806 347.5409
1645 1422731201 347.2603
1646 1422735595 349.3224
1647 1422739990 349.3239
1648 1422744384 348.4295
1649 1422748779 348.4159
1650 1422753173 347.9772
1651 1422757568 347.1918
1652 1422761962 347.2704
1653 1422766357 348.8223
1654 1422770751 348.1752
1655 1422775146 348.3414
1656 1422779541 348.4554
1657 1422783935 348.3464
1658 1422788330 347.1172
1659 1422792724 347.6252
1660 1422797119 348.0792
1661 1422801513 347.2286
1662 1422805908 348.1620
1663 1422810302 349.3231
1664 1422814697 348.7182
1665 1422819091 350.0610
1666 1422823486 347.5294
1667 1422827880 348.2744
1668 1422832275 349.2627
1669 1422836669 348.2721
1670 1422841064 347.4297
1671 1422845458 349.0609
1672 1422849853 351.0009
1673 1422854248 350.1377
1674 1422858642 349.7166
1675 1422863037 348.7455
1676 1422867431 350.0047
1677 1422871826 350.9676
1678 1422876220 351.0147
1679 1422880615 350.0348
1680 1422885009 350.9410
1681 1422889404 350.3253
1682 1422893798 350.0143
1683 1422898193 349.6871
1684 1422902587 350.2687
1685 1422906982 350.7925
1686 1422911376 349.1968
1687 1422915771 350.9174
1688 1422920166 351.2677
1689 1422924560 350.6216
1690 1422928955 350.2066
1691 1422933349 352.2148
1692 1422937744 350.7680
1693 1422942138 351.5150
1694 1422946533 352.4178
1695 1422950927 352.4875
1696 1422955322 352.7106
1697 1422959716 350.9171
1698 1422964111 351.5197
1699 1422968505 351.4864
1700 1422972900 351.8940
1701 1422977294 352.8972
1702 1422981689 353.0689
1703 1422986083 352.4847
1704 1422990478 353.1700
1705 1422994873 352.8350
1706 1422999267 352.2520
1707 1423003662 353.8412
1708 1423008056 353.0001
1709 1423012451 354.3086
1710 1423016845 354.7426
1711 1423021240 353.8128
1712 1423025634 353.5928
1713 1423030029 354.3989
1714 1423034423 355.4738
1715 1423038818 353.8896
1716 1423043212 353.9415
1717 1423047607 354.4150
1718 1423052001 352.9485
1719 1423056396 354.0495
1720 1423060791 352.0478
1721 1423065185 354.2912
1722 1423069580 354.0614
1723 1423073974 354.3747
1724 1423078369 354.2399
1725 1423082763 353.9982
1726 1423087158 354.1705
1727 1423091552 355.3857
1728 1423095947 354.6751
1729 1423100341 354.6359
1730 1423104736 354.5357
1731 1423109130 353.5216
1732 1423113525 354.6107
1733 1423117919 353.6120
1734 1423122314 355.4065
1735 1423126708 354.0057
1736 1423131103 354.1146
1737 1423135498 353.0263
1738 1423139892 352.8325
1739 1423144287 352.8279
1740 1423148681 352.8459
1741 1423153076 354.5959
1742 1423157470 354.4032
1743 1423161865 353.2903
1744 1423166259 351.2790
1745 1423170654 352.2368
1746 1423175048 352.1639
1747 1423179443 351.4370
1748 1423183837 351.6594
1749 1423188232 352.0406
1750 1423192626 351.2398
1751 1423197021 351.3607
1752 1423201416 352.3766
1753 1423205810 352.4807
1754 1423210205 352.3244
1755 1423214599 351.0924
1756 1423218994 350.6273
1757 1423223388 350.1874
1758 1423227783 349.1289
1759 1423232177 350.3856
1760 1423236572 349.8146
1761 1423240966 349.8360
1762 1423245361 350.2817
1763 1423249755 348.6671
1764 1423254150 348.3396
1765 1423258544 349.4000
1766 1423262939 348.3547
1767 1423267333 347.5166
1768 1423271728 346.4325
1769 1423276123 349.0186
1770 1423280517 347.6721
1771 1423284912 347.0256
1772 1423289306 347.3592
1773 1423293701 347.8425
1774 1423298095 349.3787
1775 1423302490 346.6020
1776 1423306884 347.4394
1777 1423311279 348.7022
1778 1423315673 348.4742
1779 1423320068 347.6963
1780 1423324462 347.8230
1781 1423328857 348.0552
1782 1423333251 347.2050
1783 1423337646 347.8971
1784 1423342041 349.7971
1785 1423346435 348.5484
1786 1423350830 347.9172
1787 1423355224 348.8786
1788 1423359619 348.7451
1789 1423364013 349.4946
1790 1423368408 349.2120
1791 1423372802 350.9350
1792 1423377197 349.1388
1793 1423381591 348.7169
1794 1423385986 350.4041
1795 1423390380 351.1617
1796 1423394775 350.2686
1797 1423399169 350.6165
1798 1423403564 351.8003
1799 1423407958 351.4406
1800 1423412353 351.9090
1801 1423416748 352.8666
1802 1423421142 352.6662
1803 1423425537 353.7156
1804 1423429931 354.2030
1805 1423434326 355.8969
1806 1423438720 354.7552
1807 1423443115 356.8756
1808 1423447509 358.6626
1809 1423451904 358.4755
1810 1423456298 358.0129
1811 1423460693 357.9518
1812 1423465087 357.6414
1813 1423469482 359.4332
1814 1423473876 359.5652
1815 1423478271 360.4529
1816 1423482666 360.5798
1817 1423487060 362.1877
1818 1423491455 362.4189
1819 1423495849 363.5642
1820 1423500244 362.6713
1821 1423504638 362.8159
1822 1423509033 364.5650
1823 1423513427 364.2191
1824 1423517822 365.4411
1825 1423522216 366.3907
1826 1423526611 366.9998
1827 1423531005 366.0038
1828 1423535400 365.3611
1829 1423539794 367.6490
1830 1423544189 366.4250
1831 1423548583 368.2767
1832 1423552978 365.8535
1833 1423557373 366.9600
1834 1423561767 367.3913
1835 1423566162 368.6045
1836 1423570556 367.8682
1837 1423574951 366.7211
1838 1423579345 367.6826
1839 1423583740 365.8007
1840 1423588134 365.0149
1841 1423592529 364.6966
1842 1423596923 365.1779
1843 1423601318 364.3216
1844 1423605712 361.8943
1845 1423610107 363.2869
1846 1423614501 362.2726
1847 1423618896 359.7636
1848 1423623291 358.9646
1849 1423627685 359.0864
1850 1423632080 357.1589
1851 1423636474 354.3872
1852 1423640869 355.0828
1853 1423645263 352.9716
1854 1423649658 351.0886
1855 1423654052 348.1103
1856 1423658447 347.0077
1857 1423662841 343.5672
1858 1423667236 341.7617
1859 1423671630 337.9542
1860 1423676025 336.6172
1861 1423680419 333.5439
1862 1423684814 331.5834
1863 1423689208 327.6765
1864 1423693603 325.7977
1865 1423697998 321.8103
1866 1423702392 319.2426
1867 1423706787 316.3570
1868 1423711181 311.1316
1869 1423715576 308.4579
1870 1423719970 304.4154
1871 1423724365 300.6627
1872 1423728759 297.2358
1873 1423733154 291.9801
1874 1423737548 288.0577
1875 1423741943 283.2495
1876 1423746337 278.6707
1877 1423750732 275.8676
1878 1423755126 270.8783
1879 1423759521 265.7539
1880 1423763916 260.8770
1881 1423768310 255.8906
1882 1423772705 250.5344
1883 1423777099 246.7630
1884 1423781494 242.1880
1885 1423785888 236.8576
1886 1423790283 231.2427
1887 1423794677 226.8091
1888 1423799072 221.3544
1889 1423803466 216.1826
1890 1423807861 210.8118
1891 1423812255 205.9773
1892 1423816650 200.0619
1893 1423821044 194.8590
1894 1423825439 190.2140
1895 1423829833 185.2342
1896 1423834228 179.4884
1897 1423838623 174.6176
1898 1423843017 169.0726
1899 1423847412 164.1555
1900 1423851806 158.9499
1901 1423856201 154.1194
1902 1423860595 149.2638
1903 1423864990 144.3171
1904 1423869384 139.8071
1905 1423873779 134.9272
1906 1423878173 129.4352
1907 1423882568 125.6859
1908 1423886962 120.3578
1909 1423891357 115.7817
1910 1423895751 111.4482
1911 1423900146 107.4178
1912 1423904541 103.1345
1913 1423908935 98.4814
1914 1423913330 94.3994
1915 1423917724 90.4261
1916 1423922119 86.5629
1917 1423926513 82.6066
1918 1423930908 78.6498
1919 1423935302 75.2233
1920 1423939697 71.7928
1921 1423944091 68.4073
1922 1423948486 65.1886
1923 1423952880 61.7817
1924 1423957275 58.7182
1925 1423961669 55.8867
1926 1423966064 52.8494
1927 1423970458 49.8572
1928 1423974853 47.3583
1929 1423979248 44.6451
1930 1423983642 42.1788
1931 1423988037 39.6856
1932 1423992431 37.5501
1933 1423996826 35.2498
1934 1424001220 33.1097
1935 1424005615 31.0406
1936 1424010009 29.1165
1937 1424014404 27.3018
1938 1424018798 25.4816
1939 1424023193 23.8700
1940 1424027587 22.1926
1941 1424031982 20.6570
1942 1424036376 19.2864
1943 1424040771 17.9743
1944 1424045166 16.6480
1945 1424049560 15.4701
1946 1424053955 14.3126
1947 1424058349 13.2963
1948 1424062744 12.2617
1949 1424067138 11.2905
1950 1424071533 10.3910
1951 1424075927 9.5301
1952 1424080322 8.7777
1953 1424084716 8.0228
1954 1424089111 7.3306
1955 1424093505 6.6838
1956 1424097900 6.1265
1957 1424102294 5.5714
1958 1424106689 5.0586
1959 1424111083 4.5724
1960 1424115478 4.1485
1961 1424119873 3.7328
1962 1424124267 3.3646
1963 1424128662 3.0239
1964 1424133056 2.7062
1965 1424137451 2.4193
1966 1424141845 2.1612
1967 1424146240 1.9203
1968 1424150634 1.7072
1969 1424155029 1.5000
1970 1424159423 1.3216
1971 1424163818 1.1598
1972 1424168212 1.0163
1973 1424172607 0.8825
1974 1424177001 0.7675
1975 1424181396 0.6637
1976 1424185791 0.5721
1977 1424190185 0.4886
1978 1424194580 0.4173
1979 1424198974 0.3534
1980 1424203369 0.2971
1981 1424207763 0.2469
1982 1424212158 0.2051
1983 1424216552 0.1694
1984 1424220947 0.1378
1985 1424225341 0.1121
1986 1424229736 0.0905
1987 1424234130 0.0727
1988 1424238525 0.0579
1989 1424242919 0.0462
1990 1424247314 0.0368
1991 1424251708 0.0300
1992 1424256103 0.0250
1993 1424260498 0.0217
1994 1424264892 0.0198
1995 1424269287 0.0191
1996 1424273681 0.0195
1997 1424278076 0.0206
1998 1424282470 0.0223
1999 1424286865 0.0247
2000 1424291259 0.0274
2001 1424295654 0.0305
2002 1424300048 0.0337
2003 1424304443 0.0370
2004 1424308837 0.0405
2005 1424313232 0.0439
2006 1424317626 0.0473
2007 1424322021 0.0506
2008 1424326416 0.0539
2009 1424330810 0.0568
2010 1424335205 0.0595
2011 1424339599 0.0622
2012 1424343994 0.0645
2013 1424348388 0.0669
2014 1424352783 0.0691
2015 1424357177 0.0706
2016 1424361572 0.0722
2017 1424365966 0.0735
2018 1424370361 0.0747
2019 1424374755 0.0758
2020 1424379150 0.0769
2021 1424383544 0.0777
2022 1424387939 0.0781
2023 1424392333 0.0786
2024 1424396728 0.0789
2025 1424401123 0.0789
2026 1424405517 0.0789
2027 1424409912 0.0791
2028 1424414306 0.0786
2029 1424418701 0.0786
2030 1424423095 0.0780
2031 1424427490 0.0778
2032 1424431884 0.0776
2033 1424436279 0.0771
2034 1424440673 0.0763
2035 1424445068 0.0760
2036 1424449462 0.0754
2037 1424453857 0.0747
2038 1424458251 0.0745
2039 1424462646 0.0736
2040 1424467041 0.0727
2041 1424471435 0.0725
2042 1424475830 0.0720
2043 1424480224 0.0713
2044 1424484619 0.0705
2045 1424489013 0.0704
2046 1424493408 0.0694
2047 1424497802 0.0692
