# FILE      =  Ref.ast
# NOTEA     = Small-horn Pi#11
# NOTEB     = Spectral Integration AIRSPY-mini Test
# OBSERVER  = Science Aficionado
# DEVICE    = airspy,bias=0
# DATADIR   = ../data/
# SITE      = Small-horn Pi#11
# CITY      = Green Bank
# REGION    = West Virginia
# COUNTRY   = US
# TELTYPE   = Bubble Wrap  Horn
# FRAME     = TOPO
# GAIN1     = 17.0
# GAIN2     = 0.0
# GAIN3     = 0.0
# GAIN4     = 0.0
# Count     = 268841
# REFFREQ   = 1420405751.768
# OBSFREQ   = 1421500000.0
# OBSBW     = 6000000.0
# Duration  = 157.277731
# DeltaX    = 5859.375
# TSYS      = 200.0
# TRX       = 100.0
# TRMS      = 2.0
# TINT      = 1.0
# KPERC     = 100.0
# GAINFACT  = 1.0
# BUNIT     = Counts
# NCHAN     = 2048
# NSPEC     = 1
# NTIME     = 0
# NSAMPLES  = 0
# EPEAK     = 4.10875183718
# ERMS      = 0.995973393526
# EMJD      = 58568.808999981004 
# REFCHAN   = 1024.0
# REFSAMPL  = 256.0
# NAVE      = 268841
# NMEDIAN   = 1024
# Fft_rate  = 5000
# UTC       = 2021-12-08 22:27:47.747153
# SECONDS   =       0.0000000000 
# LST       = 00:00:23.188
# AZ        = 0.0
# EL        = 45.0
# TELLON    = -79:50:22.920
# TELLAT    = +38:25:59.160
# TELALT    = 0.0
# RA        = 21:42:32.440
# DEC       = +38:13:45.500
# GALLON    = 86:56:40.70
# GALLAT    = -11:06:22.10
# ALT_SUN   = +00:39:52.4
# AZ_SUN    = +240:08:07.0
# ETAA      = 0.8
# ETAB      = 0.99
# POLANGLE  = 0.0
# TELSIZEAM = 1.0
# TELSIZEBM = 1.0
# AST_VERS  = 5.0.1
# N  Frequency  Intensity 
#       (Hz)    (Counts) 
0000 1418500000 127.2253
0001 1418502929 130.5092
0002 1418505859 127.2253
0003 1418508789 141.1611
0004 1418511718 120.2275
0005 1418514648 168.8791
0006 1418517578 186.3506
0007 1418520507 141.6458
0008 1418523437 206.2511
0009 1418526367 174.7702
0010 1418529296 148.6815
0011 1418532226 187.0818
0012 1418535156 132.0402
0013 1418538085 135.6901
0014 1418541015 144.7009
0015 1418543945 108.6832
0016 1418546875 120.4725
0017 1418549804 121.6766
0018 1418552734 106.1331
0019 1418555664 113.2621
0020 1418558593 111.1200
0021 1418561523 108.8147
0022 1418564453 112.8807
0023 1418567382 116.5282
0024 1418570312 123.4424
0025 1418573242 130.2440
0026 1418576171 144.6796
0027 1418579101 170.4496
0028 1418582031 186.6383
0029 1418584960 340.9695
0030 1418587890 561.2972
0031 1418590820 397.2052
0032 1418593750 271.7873
0033 1418596679 236.6879
0034 1418599609 182.8083
0035 1418602539 177.2818
0036 1418605468 182.5761
0037 1418608398 188.8173
0038 1418611328 197.6654
0039 1418614257 206.2802
0040 1418617187 216.3727
0041 1418620117 227.0779
0042 1418623046 238.4956
0043 1418625976 250.6293
0044 1418628906 263.3043
0045 1418631835 277.5230
0046 1418634765 292.2570
0047 1418637695 307.2594
0048 1418640625 323.0678
0049 1418643554 340.6221
0050 1418646484 359.2477
0051 1418649414 379.1697
0052 1418652343 401.2772
0053 1418655273 422.0341
0054 1418658203 448.7101
0055 1418661132 473.0145
0056 1418664062 498.8073
0057 1418666992 534.0919
0058 1418669921 561.3232
0059 1418672851 604.5710
0060 1418675781 678.8225
0061 1418678710 735.5882
0062 1418681640 867.1486
0063 1418684570 948.9827
0064 1418687500 842.5032
0065 1418690429 819.9128
0066 1418693359 852.6165
0067 1418696289 894.3630
0068 1418699218 941.2178
0069 1418702148 993.9675
0070 1418705078 1045.1917
0071 1418708007 1101.5613
0072 1418710937 1160.9724
0073 1418713867 1222.7720
0074 1418716796 1290.7397
0075 1418719726 1358.0548
0076 1418722656 1431.1782
0077 1418725585 1510.8634
0078 1418728515 1588.4703
0079 1418731445 1673.1472
0080 1418734375 1760.4907
0081 1418737304 1859.0675
0082 1418740234 1959.2867
0083 1418743164 2057.6274
0084 1418746093 2171.4177
0085 1418749023 2283.0798
0086 1418751953 2395.3599
0087 1418754882 2525.4060
0088 1418757812 2653.0715
0089 1418760742 2790.2092
0090 1418763671 2940.5906
0091 1418766601 3097.9321
0092 1418769531 3302.5552
0093 1418772460 3489.2996
0094 1418775390 3613.8450
0095 1418778320 3755.4985
0096 1418781250 3937.8279
0097 1418784179 4138.0381
0098 1418787109 4325.6543
0099 1418790039 4543.1602
0100 1418792968 4784.1802
0101 1418795898 5006.6392
0102 1418798828 5239.3979
0103 1418801757 5470.7632
0104 1418804687 5735.1484
0105 1418807617 5994.3394
0106 1418810546 6295.9644
0107 1418813476 6598.2441
0108 1418816406 6887.1128
0109 1418819335 7215.6372
0110 1418822265 7541.2910
0111 1418825195 7878.1406
0112 1418828125 8252.6240
0113 1418831054 8645.2871
0114 1418833984 9053.8232
0115 1418836914 9447.7480
0116 1418839843 9833.2178
0117 1418842773 10247.8545
0118 1418845703 10651.1680
0119 1418848632 11143.7051
0120 1418851562 11593.5947
0121 1418854492 12079.8750
0122 1418857421 12646.2559
0123 1418860351 13199.2568
0124 1418863281 13715.2236
0125 1418866210 14289.0723
0126 1418869140 14841.8408
0127 1418872070 15460.5918
0128 1418875000 16051.6914
0129 1418877929 16734.5332
0130 1418880859 17438.7480
0131 1418883789 18128.7227
0132 1418886718 18879.1133
0133 1418889648 19535.8086
0134 1418892578 20242.2344
0135 1418895507 21070.6582
0136 1418898437 21906.5273
0137 1418901367 22779.5547
0138 1418904296 23633.3770
0139 1418907226 24456.8691
0140 1418910156 25364.6270
0141 1418913085 26262.3672
0142 1418916015 27264.6230
0143 1418918945 28261.6074
0144 1418921875 29303.2148
0145 1418924804 30449.3477
0146 1418927734 31776.6152
0147 1418930664 33025.5625
0148 1418933593 33816.4453
0149 1418936523 34897.0586
0150 1418939453 36022.3125
0151 1418942382 37234.5273
0152 1418945312 38635.0977
0153 1418948242 39917.7266
0154 1418951171 41233.3086
0155 1418954101 42486.9062
0156 1418957031 43859.9609
0157 1418959960 45406.4492
0158 1418962890 46816.4492
0159 1418965820 48421.0000
0160 1418968750 49852.6328
0161 1418971679 51194.6367
0162 1418974609 52813.3945
0163 1418977539 54503.4297
0164 1418980468 56337.3672
0165 1418983398 57930.0703
0166 1418986328 59603.5742
0167 1418989257 61306.6328
0168 1418992187 63413.9180
0169 1418995117 65296.3672
0170 1418998046 67468.8203
0171 1419000976 68805.1797
0172 1419003906 70733.7500
0173 1419006835 72681.2578
0174 1419009765 74783.4141
0175 1419012695 76581.1953
0176 1419015625 78822.8438
0177 1419018554 80753.8203
0178 1419021484 82693.4844
0179 1419024414 85073.1875
0180 1419027343 87599.3359
0181 1419030273 89541.3906
0182 1419033203 91805.2344
0183 1419036132 94085.2344
0184 1419039062 96504.7734
0185 1419041992 98489.5859
0186 1419044921 100703.0859
0187 1419047851 103383.3438
0188 1419050781 105630.9453
0189 1419053710 108274.6094
0190 1419056640 111080.5547
0191 1419059570 113664.9141
0192 1419062500 115937.9844
0193 1419065429 118801.3516
0194 1419068359 120976.2656
0195 1419071289 123596.8203
0196 1419074218 126323.8516
0197 1419077148 129027.7344
0198 1419080078 131376.7344
0199 1419083007 134231.1094
0200 1419085937 136801.8281
0201 1419088867 139848.6406
0202 1419091796 142567.3594
0203 1419094726 145451.2188
0204 1419097656 148015.0781
0205 1419100585 150536.2812
0206 1419103515 153522.7969
0207 1419106445 156101.5469
0208 1419109375 158906.2500
0209 1419112304 161326.6250
0210 1419115234 164618.4531
0211 1419118164 167846.4844
0212 1419121093 169662.9844
0213 1419124023 172516.6094
0214 1419126953 175722.9688
0215 1419129882 178854.7969
0216 1419132812 181747.5625
0217 1419135742 184207.8438
0218 1419138671 187695.1406
0219 1419141601 190040.0469
0220 1419144531 192463.1562
0221 1419147460 194911.9531
0222 1419150390 198184.1562
0223 1419153320 200835.1094
0224 1419156250 203712.9375
0225 1419159179 206039.8750
0226 1419162109 209034.6562
0227 1419165039 211787.4062
0228 1419167968 213869.0312
0229 1419170898 217415.4219
0230 1419173828 219543.8906
0231 1419176757 222164.7812
0232 1419179687 225056.7188
0233 1419182617 227444.1406
0234 1419185546 230055.8906
0235 1419188476 233477.1562
0236 1419191406 235331.3438
0237 1419194335 238140.7812
0238 1419197265 240778.1250
0239 1419200195 243665.4062
0240 1419203125 245507.8125
0241 1419206054 247937.3750
0242 1419208984 249802.4688
0243 1419211914 252572.3438
0244 1419214843 254670.4688
0245 1419217773 257384.8750
0246 1419220703 259245.6406
0247 1419223632 262026.2969
0248 1419226562 264563.2812
0249 1419229492 265933.9375
0250 1419232421 268153.2812
0251 1419235351 269987.6250
0252 1419238281 272482.2500
0253 1419241210 274811.8438
0254 1419244140 277058.7188
0255 1419247070 279388.7812
0256 1419250000 280624.8750
0257 1419252929 283129.0938
0258 1419255859 284614.0938
0259 1419258789 286708.0938
0260 1419261718 288200.5312
0261 1419264648 290426.1875
0262 1419267578 292476.2188
0263 1419270507 294473.6875
0264 1419273437 295293.0938
0265 1419276367 296727.5000
0266 1419279296 297949.0938
0267 1419282226 299732.6250
0268 1419285156 301175.3438
0269 1419288085 303141.2500
0270 1419291015 304632.2500
0271 1419293945 306480.3750
0272 1419296875 307719.5312
0273 1419299804 308963.2188
0274 1419302734 310163.5938
0275 1419305664 311394.6562
0276 1419308593 312484.3125
0277 1419311523 314482.3125
0278 1419314453 315629.3125
0279 1419317382 317472.1875
0280 1419320312 318181.5625
0281 1419323242 320090.2812
0282 1419326171 320125.3125
0283 1419329101 320396.9062
0284 1419332031 322183.0938
0285 1419334960 324063.2500
0286 1419337890 325296.4688
0287 1419340820 325883.6250
0288 1419343750 326247.5938
0289 1419346679 326979.0312
0290 1419349609 327611.5625
0291 1419352539 329473.5938
0292 1419355468 330058.3438
0293 1419358398 330297.0625
0294 1419361328 330646.5625
0295 1419364257 333107.4688
0296 1419367187 333325.7812
0297 1419370117 334402.8125
0298 1419373046 333500.4688
0299 1419375976 335009.1250
0300 1419378906 336286.0625
0301 1419381835 336105.9062
0302 1419384765 337104.9375
0303 1419387695 336640.1562
0304 1419390625 338119.0625
0305 1419393554 338923.4375
0306 1419396484 337999.4688
0307 1419399414 339106.5625
0308 1419402343 340499.2188
0309 1419405273 340422.6562
0310 1419408203 340707.7188
0311 1419411132 340630.8125
0312 1419414062 340626.6562
0313 1419416992 341794.4375
0314 1419419921 341887.3438
0315 1419422851 342716.9375
0316 1419425781 342728.0000
0317 1419428710 342368.8438
0318 1419431640 343598.4062
0319 1419434570 344574.3750
0320 1419437500 344204.1562
0321 1419440429 343301.6875
0322 1419443359 344219.4062
0323 1419446289 345494.2812
0324 1419449218 345104.8125
0325 1419452148 345195.7500
0326 1419455078 344575.2188
0327 1419458007 344709.3438
0328 1419460937 345780.4375
0329 1419463867 346317.8125
0330 1419466796 346215.2500
0331 1419469726 346374.5312
0332 1419472656 346766.9688
0333 1419475585 345938.1562
0334 1419478515 346006.3125
0335 1419481445 345548.6562
0336 1419484375 345673.9688
0337 1419487304 345888.1250
0338 1419490234 346629.7812
0339 1419493164 345897.7812
0340 1419496093 346509.7812
0341 1419499023 346464.4375
0342 1419501953 347138.7188
0343 1419504882 347437.5312
0344 1419507812 347179.0938
0345 1419510742 346255.4688
0346 1419513671 345804.8438
0347 1419516601 346278.0938
0348 1419519531 347321.7500
0349 1419522460 346141.0312
0350 1419525390 345903.0938
0351 1419528320 346429.8125
0352 1419531250 346782.7500
0353 1419534179 347651.8438
0354 1419537109 346361.9688
0355 1419540039 345733.4375
0356 1419542968 345802.0625
0357 1419545898 346522.6875
0358 1419548828 346502.6562
0359 1419551757 347027.9688
0360 1419554687 346107.7500
0361 1419557617 346120.0312
0362 1419560546 345772.1250
0363 1419563476 345628.0938
0364 1419566406 344599.5000
0365 1419569335 345372.0938
0366 1419572265 345150.4375
0367 1419575195 345089.9062
0368 1419578125 343997.1562
0369 1419581054 345200.3438
0370 1419583984 344748.1250
0371 1419586914 344705.2812
0372 1419589843 345490.8125
0373 1419592773 344254.8125
0374 1419595703 344709.4375
0375 1419598632 344292.0938
0376 1419601562 344369.1875
0377 1419604492 344122.7500
0378 1419607421 343292.8438
0379 1419610351 342519.1250
0380 1419613281 343447.6562
0381 1419616210 342936.7812
0382 1419619140 343401.2500
0383 1419622070 343492.2188
0384 1419625000 344147.6875
0385 1419627929 343008.5312
0386 1419630859 342391.5625
0387 1419633789 342492.3438
0388 1419636718 343193.4375
0389 1419639648 342129.6875
0390 1419642578 341047.7812
0391 1419645507 341950.3125
0392 1419648437 341900.9062
0393 1419651367 342529.0938
0394 1419654296 341864.5312
0395 1419657226 341819.2812
0396 1419660156 341851.0938
0397 1419663085 341123.7188
0398 1419666015 340642.2188
0399 1419668945 341396.8750
0400 1419671875 341428.1250
0401 1419674804 341748.5938
0402 1419677734 341587.4062
0403 1419680664 340586.5938
0404 1419683593 341128.9375
0405 1419686523 340495.4062
0406 1419689453 339739.3125
0407 1419692382 340301.7188
0408 1419695312 339320.0938
0409 1419698242 339675.3750
0410 1419701171 339889.5000
0411 1419704101 340474.4688
0412 1419707031 339435.4688
0413 1419709960 339381.3438
0414 1419712890 339099.4375
0415 1419715820 339355.7500
0416 1419718750 339339.0625
0417 1419721679 339437.4375
0418 1419724609 339468.1562
0419 1419727539 339437.8438
0420 1419730468 339657.8438
0421 1419733398 339543.3125
0422 1419736328 338751.0312
0423 1419739257 338861.5938
0424 1419742187 338780.8750
0425 1419745117 339341.9688
0426 1419748046 339248.5312
0427 1419750976 338228.5312
0428 1419753906 338334.3438
0429 1419756835 337985.4062
0430 1419759765 338580.1562
0431 1419762695 338081.4062
0432 1419765625 337688.3125
0433 1419768554 337711.4688
0434 1419771484 337649.6250
0435 1419774414 337275.1562
0436 1419777343 337433.6250
0437 1419780273 337586.0938
0438 1419783203 337041.5312
0439 1419786132 336841.8438
0440 1419789062 337108.0000
0441 1419791992 336572.3438
0442 1419794921 337202.2188
0443 1419797851 336221.5312
0444 1419800781 337293.6562
0445 1419803710 337253.9688
0446 1419806640 337321.3438
0447 1419809570 337545.8750
0448 1419812500 336037.2500
0449 1419815429 337323.6250
0450 1419818359 337423.2188
0451 1419821289 336626.7812
0452 1419824218 336023.1250
0453 1419827148 335526.9688
0454 1419830078 336743.6875
0455 1419833007 337280.5312
0456 1419835937 336746.1250
0457 1419838867 337572.8750
0458 1419841796 337043.8438
0459 1419844726 335584.8750
0460 1419847656 336934.9688
0461 1419850585 335851.5938
0462 1419853515 336633.0312
0463 1419856445 337310.8750
0464 1419859375 335505.3438
0465 1419862304 337078.1250
0466 1419865234 336889.9688
0467 1419868164 335774.5000
0468 1419871093 335796.3438
0469 1419874023 336042.1250
0470 1419876953 336741.5000
0471 1419879882 335139.7812
0472 1419882812 336075.4062
0473 1419885742 336182.9688
0474 1419888671 336794.7500
0475 1419891601 336138.1562
0476 1419894531 335996.0000
0477 1419897460 335571.3125
0478 1419900390 336592.1562
0479 1419903320 335400.7812
0480 1419906250 335083.3438
0481 1419909179 335365.3750
0482 1419912109 336235.0625
0483 1419915039 336661.4375
0484 1419917968 337335.2188
0485 1419920898 336720.5312
0486 1419923828 335710.0625
0487 1419926757 336026.5312
0488 1419929687 336871.5000
0489 1419932617 337111.8750
0490 1419935546 336470.0000
0491 1419938476 336425.5938
0492 1419941406 336042.3750
0493 1419944335 337075.2812
0494 1419947265 337278.9688
0495 1419950195 336438.8438
0496 1419953125 336505.6250
0497 1419956054 337038.7188
0498 1419958984 337353.1562
0499 1419961914 336261.9062
0500 1419964843 336560.0000
0501 1419967773 336252.9062
0502 1419970703 336039.7812
0503 1419973632 337229.0938
0504 1419976562 336767.0938
0505 1419979492 337025.5000
0506 1419982421 337058.2500
0507 1419985351 337915.5625
0508 1419988281 337614.1875
0509 1419991210 337353.5312
0510 1419994140 337869.9375
0511 1419997070 337411.7500
0512 1420000000 336783.3750
0513 1420002929 337928.0000
0514 1420005859 337664.0938
0515 1420008789 336717.3438
0516 1420011718 337551.9062
0517 1420014648 337309.0938
0518 1420017578 337134.6875
0519 1420020507 338093.1562
0520 1420023437 337804.9688
0521 1420026367 337852.2500
0522 1420029296 337921.7812
0523 1420032226 338399.3125
0524 1420035156 338522.5938
0525 1420038085 337483.6875
0526 1420041015 338180.4375
0527 1420043945 338475.5938
0528 1420046875 338462.6250
0529 1420049804 338422.2500
0530 1420052734 338014.9375
0531 1420055664 338834.0312
0532 1420058593 339077.0625
0533 1420061523 337836.1250
0534 1420064453 338679.8438
0535 1420067382 339431.2188
0536 1420070312 338993.9062
0537 1420073242 339700.8125
0538 1420076171 339351.8125
0539 1420079101 341053.0000
0540 1420082031 339802.9062
0541 1420084960 339787.9375
0542 1420087890 339440.4688
0543 1420090820 339916.0625
0544 1420093750 339333.7500
0545 1420096679 340322.6250
0546 1420099609 338469.0000
0547 1420102539 339729.1875
0548 1420105468 339989.2812
0549 1420108398 339704.5312
0550 1420111328 340671.6250
0551 1420114257 340204.4688
0552 1420117187 339773.6875
0553 1420120117 340485.2188
0554 1420123046 340154.5000
0555 1420125976 340634.7812
0556 1420128906 340822.9375
0557 1420131835 340928.4062
0558 1420134765 341464.5000
0559 1420137695 341386.4688
0560 1420140625 341008.2500
0561 1420143554 340622.3125
0562 1420146484 341301.0312
0563 1420149414 341228.8750
0564 1420152343 341346.2500
0565 1420155273 341878.1250
0566 1420158203 342825.8125
0567 1420161132 342852.0625
0568 1420164062 341159.1250
0569 1420166992 342427.7812
0570 1420169921 342914.2812
0571 1420172851 342864.1875
0572 1420175781 343059.9062
0573 1420178710 343072.1875
0574 1420181640 342802.1250
0575 1420184570 342130.3125
0576 1420187500 343150.5000
0577 1420190429 342946.4688
0578 1420193359 343011.7500
0579 1420196289 343094.5938
0580 1420199218 342973.0625
0581 1420202148 343753.4062
0582 1420205078 342113.4062
0583 1420208007 343141.8750
0584 1420210937 343725.8125
0585 1420213867 343698.2500
0586 1420216796 343738.2812
0587 1420219726 344044.6562
0588 1420222656 343354.1562
0589 1420225585 343715.0938
0590 1420228515 343412.8438
0591 1420231445 344429.9375
0592 1420234375 345574.3750
0593 1420237304 345112.8125
0594 1420240234 344942.9375
0595 1420243164 345015.5938
0596 1420246093 345199.3438
0597 1420249023 345087.2188
0598 1420251953 345581.3750
0599 1420254882 345740.1250
0600 1420257812 345086.8750
0601 1420260742 346365.3750
0602 1420263671 346223.0312
0603 1420266601 345431.7500
0604 1420269531 346330.5000
0605 1420272460 345609.8750
0606 1420275390 345818.1875
0607 1420278320 346591.4375
0608 1420281250 347042.7812
0609 1420284179 347077.3125
0610 1420287109 346661.2188
0611 1420290039 346870.0000
0612 1420292968 347332.0625
0613 1420295898 347591.4375
0614 1420298828 347320.8125
0615 1420301757 346926.7188
0616 1420304687 346650.5625
0617 1420307617 347465.3125
0618 1420310546 349093.6562
0619 1420313476 349021.0625
0620 1420316406 349471.6562
0621 1420319335 349589.2188
0622 1420322265 348854.5625
0623 1420325195 348492.5000
0624 1420328125 349923.6875
0625 1420331054 349491.5938
0626 1420333984 350351.0312
0627 1420336914 350365.1875
0628 1420339843 350286.2500
0629 1420342773 350764.9375
0630 1420345703 351099.2500
0631 1420348632 351319.4688
0632 1420351562 351513.5312
0633 1420354492 351515.3750
0634 1420357421 351880.3125
0635 1420360351 353361.6875
0636 1420363281 352621.8125
0637 1420366210 352822.5312
0638 1420369140 353252.6250
0639 1420372070 353124.0000
0640 1420375000 354327.0938
0641 1420377929 354495.0625
0642 1420380859 353953.6250
0643 1420383789 354827.5000
0644 1420386718 356497.3125
0645 1420389648 356761.1875
0646 1420392578 356390.6250
0647 1420395507 357378.0625
0648 1420398437 357843.0000
0649 1420401367 359309.2500
0650 1420404296 359357.7500
0651 1420407226 359603.4688
0652 1420410156 359846.0312
0653 1420413085 361023.2500
0654 1420416015 360267.0938
0655 1420418945 361319.5312
0656 1420421875 360591.9062
0657 1420424804 361187.2812
0658 1420427734 362427.5938
0659 1420430664 363170.9062
0660 1420433593 363935.5938
0661 1420436523 364648.7812
0662 1420439453 364713.7188
0663 1420442382 364322.5625
0664 1420445312 366135.1875
0665 1420448242 365197.9688
0666 1420451171 365720.6875
0667 1420454101 366970.2500
0668 1420457031 367427.6562
0669 1420459960 368341.7812
0670 1420462890 367906.9062
0671 1420465820 367370.5000
0672 1420468750 367879.4375
0673 1420471679 367249.4688
0674 1420474609 367384.5625
0675 1420477539 367987.2500
0676 1420480468 367978.3125
0677 1420483398 367664.7188
0678 1420486328 365749.4688
0679 1420489257 365980.1875
0680 1420492187 365478.7812
0681 1420495117 364839.4375
0682 1420498046 364192.3125
0683 1420500976 363668.0000
0684 1420503906 361609.6875
0685 1420506835 361850.1250
0686 1420509765 361723.5312
0687 1420512695 360490.8750
0688 1420515625 359824.9688
0689 1420518554 359736.0000
0690 1420521484 358793.7500
0691 1420524414 359170.9375
0692 1420527343 358632.5000
0693 1420530273 358166.6562
0694 1420533203 359014.0625
0695 1420536132 359184.0312
0696 1420539062 358379.3438
0697 1420541992 358199.7188
0698 1420544921 358260.9062
0699 1420547851 358880.1875
0700 1420550781 358103.3750
0701 1420553710 358953.4688
0702 1420556640 358384.5312
0703 1420559570 357646.7812
0704 1420562500 356889.0312
0705 1420565429 357506.4688
0706 1420568359 358404.2500
0707 1420571289 357751.3750
0708 1420574218 356789.0000
0709 1420577148 357210.0938
0710 1420580078 357825.5312
0711 1420583007 358411.5000
0712 1420585937 358268.8750
0713 1420588867 358278.6250
0714 1420591796 357809.9375
0715 1420594726 358232.7500
0716 1420597656 357041.8750
0717 1420600585 357816.6562
0718 1420603515 357757.0938
0719 1420606445 358616.0000
0720 1420609375 357906.8750
0721 1420612304 357100.5938
0722 1420615234 358581.6250
0723 1420618164 358731.3125
0724 1420621093 357756.5938
0725 1420624023 357792.4688
0726 1420626953 357748.0312
0727 1420629882 358196.9688
0728 1420632812 357714.6562
0729 1420635742 357484.5938
0730 1420638671 358055.0938
0731 1420641601 357629.2812
0732 1420644531 358750.6250
0733 1420647460 358162.9375
0734 1420650390 357378.0938
0735 1420653320 357602.0000
0736 1420656250 357132.9688
0737 1420659179 358365.6875
0738 1420662109 357507.3438
0739 1420665039 358812.2188
0740 1420667968 357283.0312
0741 1420670898 357619.3125
0742 1420673828 357873.9688
0743 1420676757 356476.8750
0744 1420679687 357070.1250
0745 1420682617 357242.9062
0746 1420685546 357450.0000
0747 1420688476 358577.0000
0748 1420691406 357630.6250
0749 1420694335 357158.3125
0750 1420697265 358222.5312
0751 1420700195 357881.5312
0752 1420703125 357879.9688
0753 1420706054 357972.8750
0754 1420708984 357414.6250
0755 1420711914 357087.2500
0756 1420714843 357884.2500
0757 1420717773 357865.5000
0758 1420720703 358149.0938
0759 1420723632 357221.9062
0760 1420726562 356041.0625
0761 1420729492 356479.1562
0762 1420732421 357490.2812
0763 1420735351 356829.3438
0764 1420738281 356703.0312
0765 1420741210 356973.5312
0766 1420744140 358059.5312
0767 1420747070 356529.4688
0768 1420750000 356912.6562
0769 1420752929 357152.3125
0770 1420755859 357443.5312
0771 1420758789 357228.2500
0772 1420761718 357234.5000
0773 1420764648 356756.9062
0774 1420767578 356381.4375
0775 1420770507 357261.4375
0776 1420773437 356709.1250
0777 1420776367 356570.0938
0778 1420779296 356647.3125
0779 1420782226 356637.8438
0780 1420785156 355643.5625
0781 1420788085 356280.1562
0782 1420791015 355790.3438
0783 1420793945 356685.8438
0784 1420796875 357146.3750
0785 1420799804 356718.7500
0786 1420802734 355585.1250
0787 1420805664 357161.3125
0788 1420808593 356113.0938
0789 1420811523 355973.6250
0790 1420814453 356210.0000
0791 1420817382 356281.9062
0792 1420820312 356804.5312
0793 1420823242 357019.3438
0794 1420826171 357000.1875
0795 1420829101 356377.9375
0796 1420832031 357111.8438
0797 1420834960 356596.8438
0798 1420837890 357580.1875
0799 1420840820 356719.5938
0800 1420843750 355569.5625
0801 1420846679 356860.3125
0802 1420849609 356462.0000
0803 1420852539 355683.9688
0804 1420855468 356321.2812
0805 1420858398 355477.5000
0806 1420861328 356128.0000
0807 1420864257 357326.0312
0808 1420867187 355780.2812
0809 1420870117 355806.0625
0810 1420873046 356041.9688
0811 1420875976 355673.0312
0812 1420878906 355813.2188
0813 1420881835 355944.6875
0814 1420884765 356585.5000
0815 1420887695 356652.7500
0816 1420890625 355840.0938
0817 1420893554 355509.9688
0818 1420896484 356145.9375
0819 1420899414 356089.6250
0820 1420902343 356039.4062
0821 1420905273 355723.5938
0822 1420908203 355997.6875
0823 1420911132 355583.9688
0824 1420914062 354858.0000
0825 1420916992 355447.2500
0826 1420919921 356472.4062
0827 1420922851 356509.4375
0828 1420925781 356555.1875
0829 1420928710 356270.4688
0830 1420931640 355509.5938
0831 1420934570 356286.3750
0832 1420937500 355784.5312
0833 1420940429 356029.1875
0834 1420943359 356038.0000
0835 1420946289 356360.3750
0836 1420949218 356339.5312
0837 1420952148 354748.4688
0838 1420955078 355100.6250
0839 1420958007 355784.0000
0840 1420960937 355247.8750
0841 1420963867 355855.9688
0842 1420966796 354898.2500
0843 1420969726 354967.0625
0844 1420972656 355311.3438
0845 1420975585 355459.8125
0846 1420978515 356057.9062
0847 1420981445 355940.4062
0848 1420984375 355298.0625
0849 1420987304 355520.6250
0850 1420990234 356484.6875
0851 1420993164 355512.8438
0852 1420996093 355322.1562
0853 1420999023 355018.9688
0854 1421001953 354624.0312
0855 1421004882 355305.5000
0856 1421007812 355181.0625
0857 1421010742 354304.6875
0858 1421013671 354762.9688
0859 1421016601 355538.9062
0860 1421019531 355638.1250
0861 1421022460 354809.2812
0862 1421025390 354742.9375
0863 1421028320 354883.4688
0864 1421031250 355103.9688
0865 1421034179 354439.4688
0866 1421037109 353526.2812
0867 1421040039 354695.1875
0868 1421042968 354752.9375
0869 1421045898 354943.4062
0870 1421048828 354833.0625
0871 1421051757 355223.2188
0872 1421054687 354711.4375
0873 1421057617 354689.5625
0874 1421060546 355977.1562
0875 1421063476 354884.4375
0876 1421066406 355116.7188
0877 1421069335 354977.7500
0878 1421072265 354919.4375
0879 1421075195 354564.0625
0880 1421078125 354508.9375
0881 1421081054 354531.4062
0882 1421083984 355667.7812
0883 1421086914 355410.9688
0884 1421089843 354621.5625
0885 1421092773 354227.3125
0886 1421095703 354685.0938
0887 1421098632 354398.4375
0888 1421101562 353616.0625
0889 1421104492 354714.2500
0890 1421107421 353747.0625
0891 1421110351 354488.9375
0892 1421113281 353536.2812
0893 1421116210 353973.0625
0894 1421119140 354438.4062
0895 1421122070 355080.0312
0896 1421125000 353912.2188
0897 1421127929 354155.9375
0898 1421130859 354051.9375
0899 1421133789 354731.5938
0900 1421136718 353532.9062
0901 1421139648 354164.5000
0902 1421142578 353587.6875
0903 1421145507 354789.7812
0904 1421148437 353265.7812
0905 1421151367 353559.2188
0906 1421154296 354110.3750
0907 1421157226 353267.7812
0908 1421160156 354529.3125
0909 1421163085 354528.5000
0910 1421166015 353415.4688
0911 1421168945 353577.7812
0912 1421171875 354004.3438
0913 1421174804 353427.7812
0914 1421177734 353633.0938
0915 1421180664 353495.5000
0916 1421183593 354056.2188
0917 1421186523 354505.5000
0918 1421189453 354044.7812
0919 1421192382 353441.0625
0920 1421195312 353517.2500
0921 1421198242 353486.0938
0922 1421201171 353584.7812
0923 1421204101 354572.0625
0924 1421207031 353663.5312
0925 1421209960 353216.9375
0926 1421212890 353290.8438
0927 1421215820 352610.3750
0928 1421218750 353570.4375
0929 1421221679 353238.9062
0930 1421224609 353932.7812
0931 1421227539 352799.2500
0932 1421230468 353313.0625
0933 1421233398 352697.5625
0934 1421236328 352947.2188
0935 1421239257 353971.0312
0936 1421242187 352621.0312
0937 1421245117 353547.3750
0938 1421248046 352759.0000
0939 1421250976 354210.9688
0940 1421253906 353043.7188
0941 1421256835 353604.3125
0942 1421259765 353344.0625
0943 1421262695 352831.3750
0944 1421265625 352394.4688
0945 1421268554 352737.5625
0946 1421271484 353423.1250
0947 1421274414 353067.6250
0948 1421277343 353094.8438
0949 1421280273 352787.4062
0950 1421283203 353043.6875
0951 1421286132 354070.6562
0952 1421289062 352724.4375
0953 1421291992 353202.3438
0954 1421294921 352860.8438
0955 1421297851 352669.9062
0956 1421300781 353817.8750
0957 1421303710 352960.9062
0958 1421306640 353078.2188
0959 1421309570 352075.1875
0960 1421312500 354453.2188
0961 1421315429 353145.2812
0962 1421318359 353160.1250
0963 1421321289 352062.5312
0964 1421324218 355004.5938
0965 1421327148 352755.4688
0966 1421330078 352841.9062
0967 1421333007 352883.0625
0968 1421335937 352591.8750
0969 1421338867 352779.4375
0970 1421341796 353866.6562
0971 1421344726 353198.5312
0972 1421347656 353373.9062
0973 1421350585 353435.0000
0974 1421353515 353487.7188
0975 1421356445 352810.2812
0976 1421359375 352917.5000
0977 1421362304 353453.2500
0978 1421365234 351638.8438
0979 1421368164 353338.1562
0980 1421371093 352863.9375
0981 1421374023 353786.4688
0982 1421376953 352826.0625
0983 1421379882 353102.7500
0984 1421382812 353515.3750
0985 1421385742 354082.7812
0986 1421388671 352746.6875
0987 1421391601 353139.8750
0988 1421394531 352601.2812
0989 1421397460 353426.9688
0990 1421400390 354431.7500
0991 1421403320 353320.5625
0992 1421406250 353224.3438
0993 1421409179 353193.3750
0994 1421412109 353291.8438
0995 1421415039 353118.1562
0996 1421417968 353002.5000
0997 1421420898 352977.0312
0998 1421423828 352718.1875
0999 1421426757 353456.2812
1000 1421429687 351847.9688
1001 1421432617 352923.2500
1002 1421435546 354309.9688
1003 1421438476 352521.1875
1004 1421441406 352842.2188
1005 1421444335 352515.8750
1006 1421447265 353005.9375
1007 1421450195 352756.7500
1008 1421453125 353559.3438
1009 1421456054 353578.1250
1010 1421458984 353213.0625
1011 1421461914 353969.7188
1012 1421464843 353074.2812
1013 1421467773 352536.5000
1014 1421470703 352738.3125
1015 1421473632 353053.6875
1016 1421476562 353293.7500
1017 1421479492 354074.1875
1018 1421482421 353112.1562
1019 1421485351 353154.5312
1020 1421488281 353697.5938
1021 1421491210 353929.2500
1022 1421494140 353629.1875
1023 1421497070 353456.7188
1024 1421500000 354059.0000
1025 1421502929 353912.8438
1026 1421505859 353347.7812
1027 1421508789 354588.4688
1028 1421511718 353618.6250
1029 1421514648 353712.7812
1030 1421517578 353778.0938
1031 1421520507 353678.6250
1032 1421523437 354361.0000
1033 1421526367 353498.5000
1034 1421529296 354117.0312
1035 1421532226 353675.6562
1036 1421535156 354162.1562
1037 1421538085 353375.0312
1038 1421541015 353680.3438
1039 1421543945 353522.2188
1040 1421546875 353871.0000
1041 1421549804 353762.6250
1042 1421552734 354090.5938
1043 1421555664 355341.3125
1044 1421558593 353125.8125
1045 1421561523 354657.1250
1046 1421564453 353646.5312
1047 1421567382 353453.0938
1048 1421570312 354594.5000
1049 1421573242 353978.9375
1050 1421576171 354477.4375
1051 1421579101 353088.7500
1052 1421582031 353962.2812
1053 1421584960 353423.0938
1054 1421587890 354392.9375
1055 1421590820 354725.4375
1056 1421593750 354888.6562
1057 1421596679 353990.6250
1058 1421599609 354328.0312
1059 1421602539 354809.1250
1060 1421605468 355082.7500
1061 1421608398 355812.3438
1062 1421611328 354423.0625
1063 1421614257 354061.7812
1064 1421617187 354019.7500
1065 1421620117 353903.8438
1066 1421623046 354353.7812
1067 1421625976 354124.7812
1068 1421628906 355158.4062
1069 1421631835 354424.3438
1070 1421634765 353858.8125
1071 1421637695 354099.9688
1072 1421640625 355015.0938
1073 1421643554 354778.5312
1074 1421646484 355369.0938
1075 1421649414 354980.5312
1076 1421652343 353651.4375
1077 1421655273 354905.1875
1078 1421658203 355525.0000
1079 1421661132 355019.8438
1080 1421664062 355680.8750
1081 1421666992 355596.1562
1082 1421669921 355169.8750
1083 1421672851 354761.8125
1084 1421675781 355387.1562
1085 1421678710 355113.8125
1086 1421681640 355779.8438
1087 1421684570 355423.0938
1088 1421687500 354251.7500
1089 1421690429 356397.7500
1090 1421693359 356067.2812
1091 1421696289 356218.6562
1092 1421699218 355742.7500
1093 1421702148 356034.2188
1094 1421705078 356513.6562
1095 1421708007 354855.5000
1096 1421710937 355712.0312
1097 1421713867 355201.6875
1098 1421716796 355181.3125
1099 1421719726 356615.9688
1100 1421722656 356169.7188
1101 1421725585 355700.5938
1102 1421728515 355406.3750
1103 1421731445 355429.6562
1104 1421734375 355808.8438
1105 1421737304 357508.9375
1106 1421740234 357313.2500
1107 1421743164 355700.4688
1108 1421746093 355579.9375
1109 1421749023 356031.7188
1110 1421751953 356737.2188
1111 1421754882 358776.7188
1112 1421757812 357254.5625
1113 1421760742 356198.0312
1114 1421763671 355748.9688
1115 1421766601 355749.2812
1116 1421769531 356467.8125
1117 1421772460 356965.9688
1118 1421775390 356992.1250
1119 1421778320 356681.5625
1120 1421781250 357467.2500
1121 1421784179 357330.1875
1122 1421787109 357784.3125
1123 1421790039 357195.2812
1124 1421792968 356985.3438
1125 1421795898 356742.5000
1126 1421798828 356814.1562
1127 1421801757 358362.8438
1128 1421804687 358330.8125
1129 1421807617 357788.4688
1130 1421810546 357201.1250
1131 1421813476 357940.8750
1132 1421816406 357717.0312
1133 1421819335 357567.2500
1134 1421822265 357159.8438
1135 1421825195 358454.3125
1136 1421828125 358480.3750
1137 1421831054 358453.5312
1138 1421833984 357744.6250
1139 1421836914 358883.3750
1140 1421839843 358057.1875
1141 1421842773 358902.4688
1142 1421845703 357983.1562
1143 1421848632 357211.5938
1144 1421851562 357749.9375
1145 1421854492 358268.9062
1146 1421857421 358434.8125
1147 1421860351 357435.3438
1148 1421863281 357191.4375
1149 1421866210 357807.7188
1150 1421869140 357695.1875
1151 1421872070 359088.7188
1152 1421875000 359108.7188
1153 1421877929 359344.8125
1154 1421880859 358249.2812
1155 1421883789 358401.4688
1156 1421886718 358364.8125
1157 1421889648 358579.7188
1158 1421892578 357728.3438
1159 1421895507 358190.0625
1160 1421898437 358656.0312
1161 1421901367 359121.3438
1162 1421904296 359070.7812
1163 1421907226 359939.5625
1164 1421910156 358669.0312
1165 1421913085 358294.8750
1166 1421916015 359688.5938
1167 1421918945 358914.2812
1168 1421921875 359153.7812
1169 1421924804 359087.0312
1170 1421927734 359483.3438
1171 1421930664 360492.0625
1172 1421933593 359870.5000
1173 1421936523 359169.3125
1174 1421939453 359281.7500
1175 1421942382 359233.6562
1176 1421945312 359135.3438
1177 1421948242 359337.0938
1178 1421951171 358478.1250
1179 1421954101 360457.0312
1180 1421957031 360347.2812
1181 1421959960 359672.3438
1182 1421962890 359472.3750
1183 1421965820 359728.4062
1184 1421968750 360430.4062
1185 1421971679 359756.3125
1186 1421974609 359805.5938
1187 1421977539 358790.9375
1188 1421980468 361473.6875
1189 1421983398 360687.4375
1190 1421986328 360434.5312
1191 1421989257 359939.4688
1192 1421992187 360888.1875
1193 1421995117 360360.6250
1194 1421998046 360528.3750
1195 1422000976 360295.1875
1196 1422003906 359466.0312
1197 1422006835 360043.1875
1198 1422009765 360622.3438
1199 1422012695 360698.8438
1200 1422015625 361200.0312
1201 1422018554 360057.0625
1202 1422021484 360099.6250
1203 1422024414 360093.1875
1204 1422027343 360673.0000
1205 1422030273 361077.0312
1206 1422033203 362060.0625
1207 1422036132 360496.4688
1208 1422039062 360110.1562
1209 1422041992 361371.5938
1210 1422044921 360438.0938
1211 1422047851 359985.0625
1212 1422050781 361124.4688
1213 1422053710 361002.1562
1214 1422056640 361311.3750
1215 1422059570 360823.8438
1216 1422062500 361591.9375
1217 1422065429 361520.3750
1218 1422068359 361731.5938
1219 1422071289 360851.5625
1220 1422074218 361527.5938
1221 1422077148 361958.4375
1222 1422080078 360390.2812
1223 1422083007 362374.7188
1224 1422085937 361905.3125
1225 1422088867 362236.0625
1226 1422091796 361250.3750
1227 1422094726 361255.1250
1228 1422097656 361156.3438
1229 1422100585 361114.1250
1230 1422103515 361344.6875
1231 1422106445 361937.3750
1232 1422109375 362970.9688
1233 1422112304 361878.1562
1234 1422115234 362551.4375
1235 1422118164 361452.8750
1236 1422121093 361295.8125
1237 1422124023 361945.5625
1238 1422126953 362495.5000
1239 1422129882 362563.7812
1240 1422132812 362346.3438
1241 1422135742 360497.9375
1242 1422138671 361284.2812
1243 1422141601 362388.7500
1244 1422144531 361111.6250
1245 1422147460 362430.3438
1246 1422150390 361940.0000
1247 1422153320 362409.8125
1248 1422156250 361961.9375
1249 1422159179 362063.0625
1250 1422162109 362768.7188
1251 1422165039 362937.3125
1252 1422167968 362242.3438
1253 1422170898 362063.6250
1254 1422173828 362894.3438
1255 1422176757 362261.8125
1256 1422179687 362288.8125
1257 1422182617 363350.6562
1258 1422185546 363181.2500
1259 1422188476 362992.3125
1260 1422191406 363604.2188
1261 1422194335 362770.2812
1262 1422197265 362020.0938
1263 1422200195 362859.3750
1264 1422203125 362060.9688
1265 1422206054 362610.2500
1266 1422208984 364152.3438
1267 1422211914 363546.3438
1268 1422214843 363773.8438
1269 1422217773 363403.5625
1270 1422220703 362839.2812
1271 1422223632 363897.5000
1272 1422226562 364294.8750
1273 1422229492 363131.3750
1274 1422232421 363390.4062
1275 1422235351 363645.8438
1276 1422238281 363570.8125
1277 1422241210 363403.0938
1278 1422244140 363427.5312
1279 1422247070 363341.0938
1280 1422250000 364283.3438
1281 1422252929 364545.9375
1282 1422255859 364317.8750
1283 1422258789 364207.7812
1284 1422261718 363923.0000
1285 1422264648 363802.5000
1286 1422267578 364209.2500
1287 1422270507 363088.0625
1288 1422273437 363967.0938
1289 1422276367 365338.7812
1290 1422279296 365291.1562
1291 1422282226 363975.0312
1292 1422285156 363670.3438
1293 1422288085 363954.8750
1294 1422291015 364928.6875
1295 1422293945 365694.8438
1296 1422296875 363788.1562
1297 1422299804 365141.5625
1298 1422302734 365039.8750
1299 1422305664 365742.3750
1300 1422308593 365434.6562
1301 1422311523 365213.0938
1302 1422314453 364858.4375
1303 1422317382 364546.4062
1304 1422320312 365422.6250
1305 1422323242 364415.3438
1306 1422326171 365174.0938
1307 1422329101 365554.6875
1308 1422332031 364916.2500
1309 1422334960 364827.6875
1310 1422337890 366544.6250
1311 1422340820 365795.0938
1312 1422343750 366385.2500
1313 1422346679 365666.6562
1314 1422349609 366485.1875
1315 1422352539 366133.5938
1316 1422355468 365773.4062
1317 1422358398 366086.6875
1318 1422361328 365437.8438
1319 1422364257 365820.1875
1320 1422367187 365600.7500
1321 1422370117 365019.0000
1322 1422373046 365754.3125
1323 1422375976 366533.7812
1324 1422378906 366998.7812
1325 1422381835 365883.0000
1326 1422384765 366219.0000
1327 1422387695 365463.5625
1328 1422390625 366514.2812
1329 1422393554 366405.5938
1330 1422396484 366728.1250
1331 1422399414 367050.3438
1332 1422402343 366783.2500
1333 1422405273 368445.6562
1334 1422408203 366409.3750
1335 1422411132 366718.0938
1336 1422414062 366543.6250
1337 1422416992 366377.5938
1338 1422419921 366777.3438
1339 1422422851 367578.2188
1340 1422425781 367772.0625
1341 1422428710 366706.3750
1342 1422431640 367701.0000
1343 1422434570 368251.8438
1344 1422437500 368769.5938
1345 1422440429 368323.7188
1346 1422443359 367485.5000
1347 1422446289 367964.0938
1348 1422449218 367934.5312
1349 1422452148 367252.6562
1350 1422455078 368931.3438
1351 1422458007 368444.8125
1352 1422460937 368818.5312
1353 1422463867 368696.5938
1354 1422466796 368295.6875
1355 1422469726 368446.7188
1356 1422472656 368701.5000
1357 1422475585 368004.7500
1358 1422478515 369031.1250
1359 1422481445 367753.4688
1360 1422484375 368957.5625
1361 1422487304 369622.2188
1362 1422490234 368837.9688
1363 1422493164 369282.5625
1364 1422496093 369336.0000
1365 1422499023 370565.8125
1366 1422501953 369537.5625
1367 1422504882 369107.2812
1368 1422507812 369673.9062
1369 1422510742 370667.3750
1370 1422513671 369825.5000
1371 1422516601 369599.8750
1372 1422519531 369295.1875
1373 1422522460 369316.2500
1374 1422525390 371057.4062
1375 1422528320 369011.6875
1376 1422531250 368835.9375
1377 1422534179 369628.0312
1378 1422537109 369937.6562
1379 1422540039 370505.0000
1380 1422542968 370443.6875
1381 1422545898 370863.6250
1382 1422548828 370831.4375
1383 1422551757 370171.3125
1384 1422554687 370246.3125
1385 1422557617 371107.0938
1386 1422560546 371768.2812
1387 1422563476 370331.5000
1388 1422566406 370761.3750
1389 1422569335 371288.7188
1390 1422572265 371125.0625
1391 1422575195 370951.7500
1392 1422578125 372592.3750
1393 1422581054 371125.5938
1394 1422583984 371060.2188
1395 1422586914 373129.7188
1396 1422589843 370735.8750
1397 1422592773 371556.0625
1398 1422595703 370917.2188
1399 1422598632 371765.5938
1400 1422601562 372488.3750
1401 1422604492 370873.5312
1402 1422607421 372593.6250
1403 1422610351 372008.0938
1404 1422613281 371576.3750
1405 1422616210 371188.0625
1406 1422619140 371900.5000
1407 1422622070 371472.7812
1408 1422625000 372386.6562
1409 1422627929 373101.7500
1410 1422630859 372692.3125
1411 1422633789 372871.6875
1412 1422636718 373366.8750
1413 1422639648 373495.0625
1414 1422642578 373360.2500
1415 1422645507 374080.7500
1416 1422648437 372740.6562
1417 1422651367 372913.6875
1418 1422654296 373726.1250
1419 1422657226 372816.4375
1420 1422660156 374542.4375
1421 1422663085 374270.9375
1422 1422666015 373250.7500
1423 1422668945 373496.4062
1424 1422671875 372947.8438
1425 1422674804 373059.3750
1426 1422677734 374481.5625
1427 1422680664 372802.5312
1428 1422683593 373076.0312
1429 1422686523 373343.0312
1430 1422689453 373891.0312
1431 1422692382 374383.6250
1432 1422695312 373592.3438
1433 1422698242 374744.7500
1434 1422701171 374611.2188
1435 1422704101 374864.4688
1436 1422707031 374486.0000
1437 1422709960 376586.1875
1438 1422712890 375371.5000
1439 1422715820 374501.5312
1440 1422718750 374739.2500
1441 1422721679 374526.1250
1442 1422724609 375301.9375
1443 1422727539 374299.4062
1444 1422730468 374506.0000
1445 1422733398 374364.2188
1446 1422736328 374016.6250
1447 1422739257 374762.5000
1448 1422742187 375312.2500
1449 1422745117 374624.5312
1450 1422748046 375487.2500
1451 1422750976 374935.6875
1452 1422753906 376152.3750
1453 1422756835 375820.5000
1454 1422759765 375075.0625
1455 1422762695 375134.5312
1456 1422765625 375401.6562
1457 1422768554 375633.3438
1458 1422771484 375454.3438
1459 1422774414 376292.4375
1460 1422777343 375557.7500
1461 1422780273 375401.1875
1462 1422783203 375204.4375
1463 1422786132 375432.5625
1464 1422789062 375631.9688
1465 1422791992 375169.0312
1466 1422794921 375764.3750
1467 1422797851 375600.9375
1468 1422800781 376396.6875
1469 1422803710 375460.5625
1470 1422806640 376754.3750
1471 1422809570 377381.0938
1472 1422812500 376926.7188
1473 1422815429 375633.6562
1474 1422818359 375100.2188
1475 1422821289 376990.5625
1476 1422824218 376628.9062
1477 1422827148 376367.5625
1478 1422830078 377496.8750
1479 1422833007 377124.4375
1480 1422835937 377085.0625
1481 1422838867 375794.2500
1482 1422841796 376929.0625
1483 1422844726 376109.6562
1484 1422847656 377216.0312
1485 1422850585 376691.8125
1486 1422853515 376237.8750
1487 1422856445 375841.4375
1488 1422859375 375522.7500
1489 1422862304 376307.9062
1490 1422865234 378088.5312
1491 1422868164 376847.0938
1492 1422871093 378364.4062
1493 1422874023 377377.0938
1494 1422876953 378041.5938
1495 1422879882 377587.6250
1496 1422882812 378210.8125
1497 1422885742 377129.5625
1498 1422888671 376786.3125
1499 1422891601 379248.6562
1500 1422894531 377919.3750
1501 1422897460 378088.9062
1502 1422900390 377394.1562
1503 1422903320 378075.6875
1504 1422906250 376934.7812
1505 1422909179 378336.0625
1506 1422912109 378477.1250
1507 1422915039 378240.0312
1508 1422917968 378207.5625
1509 1422920898 378323.1250
1510 1422923828 378008.0312
1511 1422926757 378638.8125
1512 1422929687 379247.6875
1513 1422932617 378468.6250
1514 1422935546 379215.5000
1515 1422938476 378916.7812
1516 1422941406 377762.6250
1517 1422944335 378205.2812
1518 1422947265 378244.1875
1519 1422950195 378802.4688
1520 1422953125 378080.4375
1521 1422956054 379478.7812
1522 1422958984 379068.6875
1523 1422961914 379991.0625
1524 1422964843 380183.8750
1525 1422967773 378891.6875
1526 1422970703 379096.0000
1527 1422973632 378311.9062
1528 1422976562 378846.5000
1529 1422979492 379126.7500
1530 1422982421 378776.5312
1531 1422985351 379199.3750
1532 1422988281 379153.7500
1533 1422991210 377960.2500
1534 1422994140 377938.5938
1535 1422997070 379908.2188
1536 1423000000 380640.4375
1537 1423002929 379457.5625
1538 1423005859 379139.6250
1539 1423008789 380683.8125
1540 1423011718 380572.2188
1541 1423014648 380024.4062
1542 1423017578 379226.6250
1543 1423020507 379520.5625
1544 1423023437 381125.9688
1545 1423026367 380905.3750
1546 1423029296 379316.7188
1547 1423032226 381441.3750
1548 1423035156 380574.3750
1549 1423038085 380573.4688
1550 1423041015 381383.3750
1551 1423043945 380783.4375
1552 1423046875 381177.1250
1553 1423049804 379651.0625
1554 1423052734 380770.0625
1555 1423055664 381265.9375
1556 1423058593 380471.3125
1557 1423061523 381497.9688
1558 1423064453 381675.6562
1559 1423067382 381448.4688
1560 1423070312 381239.9688
1561 1423073242 381519.6875
1562 1423076171 381962.1250
1563 1423079101 382174.5312
1564 1423082031 380759.2188
1565 1423084960 381471.7812
1566 1423087890 381368.9688
1567 1423090820 380925.0938
1568 1423093750 382126.6562
1569 1423096679 381370.4375
1570 1423099609 382225.4062
1571 1423102539 381423.0938
1572 1423105468 381626.3125
1573 1423108398 381123.8750
1574 1423111328 382298.6875
1575 1423114257 382115.3125
1576 1423117187 382052.6562
1577 1423120117 382824.5000
1578 1423123046 381142.0938
1579 1423125976 381637.0312
1580 1423128906 382988.9688
1581 1423131835 383033.7188
1582 1423134765 382915.6562
1583 1423137695 382582.1562
1584 1423140625 381539.1875
1585 1423143554 383553.2188
1586 1423146484 383181.5000
1587 1423149414 381711.0312
1588 1423152343 381662.6875
1589 1423155273 382351.0312
1590 1423158203 382363.0312
1591 1423161132 383666.7500
1592 1423164062 383601.4375
1593 1423166992 383400.8750
1594 1423169921 383248.1562
1595 1423172851 383225.0938
1596 1423175781 383314.8438
1597 1423178710 384201.7812
1598 1423181640 385042.3438
1599 1423184570 383564.8750
1600 1423187500 384036.1250
1601 1423190429 384256.0938
1602 1423193359 384704.7812
1603 1423196289 385058.3125
1604 1423199218 384896.3750
1605 1423202148 385016.2812
1606 1423205078 385415.5938
1607 1423208007 384996.1250
1608 1423210937 384766.7188
1609 1423213867 385158.2188
1610 1423216796 384750.0625
1611 1423219726 384381.1875
1612 1423222656 385429.2188
1613 1423225585 385282.7812
1614 1423228515 386004.8750
1615 1423231445 385904.2812
1616 1423234375 386418.4688
1617 1423237304 386766.9688
1618 1423240234 386156.1562
1619 1423243164 385288.8125
1620 1423246093 386350.3750
1621 1423249023 386263.1250
1622 1423251953 386958.5312
1623 1423254882 386825.2812
1624 1423257812 386803.4375
1625 1423260742 387465.8438
1626 1423263671 387082.6875
1627 1423266601 386250.0625
1628 1423269531 388344.5312
1629 1423272460 387478.1250
1630 1423275390 387914.5000
1631 1423278320 389041.7500
1632 1423281250 387891.3125
1633 1423284179 388889.0938
1634 1423287109 388121.0000
1635 1423290039 387745.2812
1636 1423292968 387628.7188
1637 1423295898 387792.0000
1638 1423298828 389145.6875
1639 1423301757 388606.7188
1640 1423304687 388755.8438
1641 1423307617 389069.4375
1642 1423310546 389657.0938
1643 1423313476 390047.8438
1644 1423316406 390608.3438
1645 1423319335 389438.4062
1646 1423322265 389808.7500
1647 1423325195 389713.3125
1648 1423328125 390382.5312
1649 1423331054 390690.5000
1650 1423333984 390802.3438
1651 1423336914 390254.7188
1652 1423339843 391193.5312
1653 1423342773 392269.5312
1654 1423345703 391227.3750
1655 1423348632 391346.7500
1656 1423351562 392138.8750
1657 1423354492 391750.5938
1658 1423357421 392415.2188
1659 1423360351 392867.4062
1660 1423363281 393447.0000
1661 1423366210 393077.0000
1662 1423369140 393247.7188
1663 1423372070 393278.5938
1664 1423375000 393664.9375
1665 1423377929 393293.2188
1666 1423380859 393769.5625
1667 1423383789 394782.0625
1668 1423386718 394867.9688
1669 1423389648 393587.7500
1670 1423392578 394561.0625
1671 1423395507 395709.5000
1672 1423398437 396639.6250
1673 1423401367 395793.5625
1674 1423404296 397178.1875
1675 1423407226 396838.2812
1676 1423410156 397667.5312
1677 1423413085 397526.1250
1678 1423416015 397310.4375
1679 1423418945 397249.4062
1680 1423421875 397474.7500
1681 1423424804 398606.0000
1682 1423427734 398228.8750
1683 1423430664 398791.9688
1684 1423433593 398641.6250
1685 1423436523 399915.9688
1686 1423439453 399721.9375
1687 1423442382 399849.6562
1688 1423445312 400263.0312
1689 1423448242 401502.6250
1690 1423451171 401004.6250
1691 1423454101 401142.6875
1692 1423457031 402052.5312
1693 1423459960 402458.4375
1694 1423462890 402653.0000
1695 1423465820 403035.1562
1696 1423468750 404015.8438
1697 1423471679 404492.8125
1698 1423474609 405728.3125
1699 1423477539 405314.5625
1700 1423480468 405471.4688
1701 1423483398 406089.7812
1702 1423486328 406865.3438
1703 1423489257 406390.9688
1704 1423492187 407233.4062
1705 1423495117 408456.8438
1706 1423498046 407949.0625
1707 1423500976 409647.8438
1708 1423503906 409211.6250
1709 1423506835 410715.3438
1710 1423509765 410834.4688
1711 1423512695 410698.0625
1712 1423515625 411365.9375
1713 1423518554 411379.3750
1714 1423521484 412554.3438
1715 1423524414 413364.8125
1716 1423527343 412877.4062
1717 1423530273 414963.0938
1718 1423533203 415004.0938
1719 1423536132 416148.8750
1720 1423539062 415415.0625
1721 1423541992 417281.4688
1722 1423544921 416141.8125
1723 1423547851 418700.3750
1724 1423550781 418919.3125
1725 1423553710 420014.1875
1726 1423556640 420748.0312
1727 1423559570 421896.6250
1728 1423562500 421728.3438
1729 1423565429 422615.6875
1730 1423568359 422561.4688
1731 1423571289 423689.5000
1732 1423574218 423640.1250
1733 1423577148 425579.2188
1734 1423580078 426759.7500
1735 1423583007 427308.6875
1736 1423585937 427288.0625
1737 1423588867 429677.0312
1738 1423591796 429974.5312
1739 1423594726 429338.7500
1740 1423597656 431896.1562
1741 1423600585 433675.5625
1742 1423603515 433268.0625
1743 1423606445 435000.4375
1744 1423609375 434387.8125
1745 1423612304 434915.2812
1746 1423615234 437533.5000
1747 1423618164 439119.0312
1748 1423621093 441335.6875
1749 1423624023 440782.4688
1750 1423626953 440593.6562
1751 1423629882 443886.3750
1752 1423632812 445997.5938
1753 1423635742 446006.9062
1754 1423638671 446810.2500
1755 1423641601 448076.9062
1756 1423644531 448983.7188
1757 1423647460 451043.6562
1758 1423650390 452008.1250
1759 1423653320 453294.8125
1760 1423656250 455137.2500
1761 1423659179 456635.2188
1762 1423662109 457522.9375
1763 1423665039 459778.6250
1764 1423667968 459507.8750
1765 1423670898 461088.0625
1766 1423673828 463761.6250
1767 1423676757 464739.0000
1768 1423679687 466083.1875
1769 1423682617 467128.6250
1770 1423685546 468676.9062
1771 1423688476 471996.8438
1772 1423691406 475005.2812
1773 1423694335 475262.3125
1774 1423697265 477417.9062
1775 1423700195 478798.4688
1776 1423703125 482298.9062
1777 1423706054 483016.0625
1778 1423708984 484986.9375
1779 1423711914 487652.8750
1780 1423714843 488585.9688
1781 1423717773 490133.3125
1782 1423720703 492913.8750
1783 1423723632 495968.0312
1784 1423726562 497788.0000
1785 1423729492 499753.8125
1786 1423732421 501575.4375
1787 1423735351 504473.6250
1788 1423738281 506413.5000
1789 1423741210 508314.6875
1790 1423744140 511480.0938
1791 1423747070 514990.8125
1792 1423750000 516225.4688
1793 1423752929 519360.3438
1794 1423755859 520379.4688
1795 1423758789 524289.0000
1796 1423761718 527414.0000
1797 1423764648 532085.7500
1798 1423767578 532837.5000
1799 1423770507 536837.6250
1800 1423773437 538984.2500
1801 1423776367 542927.7500
1802 1423779296 545403.3750
1803 1423782226 548638.5000
1804 1423785156 551065.3125
1805 1423788085 554982.6875
1806 1423791015 556929.8750
1807 1423793945 559350.2500
1808 1423796875 561860.5625
1809 1423799804 567297.9375
1810 1423802734 568629.2500
1811 1423805664 573610.4375
1812 1423808593 575662.2500
1813 1423811523 579897.1250
1814 1423814453 582584.2500
1815 1423817382 585276.4375
1816 1423820312 586376.6875
1817 1423823242 591105.0625
1818 1423826171 594355.8125
1819 1423829101 598537.0000
1820 1423832031 601688.6875
1821 1423834960 604721.6250
1822 1423837890 606352.8125
1823 1423840820 609590.3750
1824 1423843750 611535.8750
1825 1423846679 614565.8750
1826 1423849609 616099.1250
1827 1423852539 618675.9375
1828 1423855468 619853.8750
1829 1423858398 622497.6875
1830 1423861328 623347.9375
1831 1423864257 625150.5625
1832 1423867187 625786.6250
1833 1423870117 626465.6875
1834 1423873046 625661.4375
1835 1423875976 627216.1875
1836 1423878906 624044.1250
1837 1423881835 625072.3125
1838 1423884765 624447.1250
1839 1423887695 624503.9375
1840 1423890625 620824.5000
1841 1423893554 618092.0625
1842 1423896484 614792.4375
1843 1423899414 610173.1875
1844 1423902343 605735.1250
1845 1423905273 601911.5625
1846 1423908203 598583.8750
1847 1423911132 591364.5000
1848 1423914062 584523.0000
1849 1423916992 576926.8750
1850 1423919921 569052.5625
1851 1423922851 561526.2500
1852 1423925781 552476.9375
1853 1423928710 542221.6250
1854 1423931640 530721.8125
1855 1423934570 519203.0312
1856 1423937500 507580.1875
1857 1423940429 494573.8438
1858 1423943359 481984.3125
1859 1423946289 467722.7188
1860 1423949218 453642.0312
1861 1423952148 442477.3438
1862 1423955078 427760.4688
1863 1423958007 413099.9062
1864 1423960937 398422.2812
1865 1423963867 384188.7500
1866 1423966796 370214.7812
1867 1423969726 355188.2188
1868 1423972656 340462.2188
1869 1423975585 324975.9688
1870 1423978515 310955.2500
1871 1423981445 298028.8750
1872 1423984375 283650.1875
1873 1423987304 269573.0000
1874 1423990234 256875.1094
1875 1423993164 244390.0938
1876 1423996093 232017.6562
1877 1423999023 220040.5000
1878 1424001953 208414.1406
1879 1424004882 197450.2656
1880 1424007812 186414.7656
1881 1424010742 176066.1094
1882 1424013671 166307.4062
1883 1424016601 156366.9688
1884 1424019531 146657.6875
1885 1424022460 138396.4688
1886 1424025390 130108.0469
1887 1424028320 122017.3594
1888 1424031250 114354.3125
1889 1424034179 107536.1953
1890 1424037109 100594.2656
1891 1424040039 94337.3281
1892 1424042968 88286.3594
1893 1424045898 82367.9453
1894 1424048828 76999.2734
1895 1424051757 71881.6016
1896 1424054687 66999.1484
1897 1424057617 62443.0469
1898 1424060546 58030.4492
1899 1424063476 53934.7031
1900 1424066406 50457.6484
1901 1424069335 46809.8242
1902 1424072265 43355.3086
1903 1424075195 40297.2148
1904 1424078125 37382.5000
1905 1424081054 34664.5742
1906 1424083984 32100.4062
1907 1424086914 29741.5625
1908 1424089843 27371.1348
1909 1424092773 25405.3262
1910 1424095703 23435.7910
1911 1424098632 21597.4980
1912 1424101562 19913.6504
1913 1424104492 18350.9766
1914 1424107421 16875.9277
1915 1424110351 15533.2461
1916 1424113281 14243.0039
1917 1424116210 13062.1816
1918 1424119140 11968.1748
1919 1424122070 10972.6602
1920 1424125000 10005.1650
1921 1424127929 9179.1709
1922 1424130859 8407.7275
1923 1424133789 7657.1045
1924 1424136718 6959.9175
1925 1424139648 6333.4917
1926 1424142578 5707.8169
1927 1424145507 5141.6079
1928 1424148437 4633.7324
1929 1424151367 4177.1772
1930 1424154296 3776.6409
1931 1424157226 3391.3311
1932 1424160156 3064.1501
1933 1424163085 2779.1729
1934 1424166015 2495.7095
1935 1424168945 2228.1699
1936 1424171875 1969.8528
1937 1424174804 1727.6957
1938 1424177734 1525.3024
1939 1424180664 1343.4797
1940 1424183593 1183.2976
1941 1424186523 1040.0343
1942 1424189453 913.1022
1943 1424192382 801.3203
1944 1424195312 704.5973
1945 1424198242 618.0152
1946 1424201171 541.2189
1947 1424204101 482.1170
1948 1424207031 420.8579
1949 1424209960 377.6731
1950 1424212890 344.2800
1951 1424215820 308.7910
1952 1424218750 315.7319
1953 1424221679 353.1088
1954 1424224609 551.0540
1955 1424227539 864.4985
1956 1424230468 567.3589
1957 1424233398 257.5334
1958 1424236328 198.4936
1959 1424239257 181.9802
1960 1424242187 178.8607
1961 1424245117 178.9855
1962 1424248046 180.3666
1963 1424250976 185.9630
1964 1424253906 190.9958
1965 1424256835 197.9204
1966 1424259765 206.2247
1967 1424262695 214.6727
1968 1424265625 223.1354
1969 1424268554 233.2340
1970 1424271484 242.3220
1971 1424274414 251.6670
1972 1424277343 261.4399
1973 1424280273 275.4665
1974 1424283203 302.4962
1975 1424286132 291.7426
1976 1424289062 295.9345
1977 1424291992 304.9159
1978 1424294921 312.6953
1979 1424297851 321.2031
1980 1424300781 328.9507
1981 1424303710 344.4325
1982 1424306640 368.5564
1983 1424309570 411.4706
1984 1424312500 749.2785
1985 1424315429 1550.8987
1986 1424318359 1335.6805
1987 1424321289 840.0832
1988 1424324218 738.4568
1989 1424327148 486.0628
1990 1424330078 414.9475
1991 1424333007 415.3799
1992 1424335937 362.3276
1993 1424338867 360.6919
1994 1424341796 348.5948
1995 1424344726 324.1259
1996 1424347656 322.0094
1997 1424350585 308.3575
1998 1424353515 296.6459
1999 1424356445 289.9435
2000 1424359375 280.7206
2001 1424362304 272.4840
2002 1424365234 264.0029
2003 1424368164 255.7879
2004 1424371093 247.3786
2005 1424374023 238.8440
2006 1424376953 230.3593
2007 1424379882 221.6226
2008 1424382812 213.6328
2009 1424385742 205.3628
2010 1424388671 198.2381
2011 1424391601 192.5687
2012 1424394531 193.7145
2013 1424397460 194.9951
2014 1424400390 240.2358
2015 1424403320 469.3717
2016 1424406250 612.6711
2017 1424409179 1080.9906
2018 1424412109 1697.3550
2019 1424415039 875.7772
2020 1424417968 325.0848
2021 1424420898 279.6223
2022 1424423828 201.5267
2023 1424426757 166.7850
2024 1424429687 151.3771
2025 1424432617 137.2761
2026 1424435546 132.0018
2027 1424438476 125.6807
2028 1424441406 134.1498
2029 1424444335 142.2926
2030 1424447265 126.2662
2031 1424450195 162.8699
2032 1424453125 160.7966
2033 1424456054 130.1805
2034 1424458984 205.3604
2035 1424461914 185.1263
2036 1424464843 169.4902
2037 1424467773 265.6866
2038 1424470703 193.0419
2039 1424473632 226.3688
2040 1424476562 269.1055
2041 1424479492 166.8483
2042 1424482421 222.1132
2043 1424485351 196.5796
2044 1424488281 127.6535
2045 1424491210 150.7416
2046 1424494140 131.7483
2047 1424497070 131.3510
